Channel              :,CH1
Frequency            :,  ?
Period               :,  ?
PK-PK                :,58.59mV
Probe attenuation    :,10X
Voltage per ADC value:,0.122070mV
Time interval        :,400.00000us

index,CH1_Voltage(mV)
1,-60.546875
2,-60.546875
3,-60.546875
4,-60.546875
5,-64.453125
6,-60.546875
7,-62.500000
8,-60.546875
9,-62.500000
10,-60.546875
11,-60.546875
12,-60.546875
13,-60.546875
14,-56.640625
15,-62.500000
16,-60.546875
17,-60.546875
18,-60.546875
19,-56.640625
20,-60.546875
21,-60.546875
22,-60.546875
23,-62.500000
24,-62.500000
25,-62.500000
26,-60.546875
27,-60.546875
28,-62.500000
29,-60.546875
30,-60.546875
31,-60.546875
32,-60.546875
33,-60.546875
34,-58.593750
35,-60.546875
36,-60.546875
37,-62.500000
38,-60.546875
39,-60.546875
40,-60.546875
41,-60.546875
42,-60.546875
43,-62.500000
44,-60.546875
45,-60.546875
46,-60.546875
47,-60.546875
48,-41.015625
49,-60.546875
50,-56.640625
51,-64.453125
52,-56.640625
53,-60.546875
54,-60.546875
55,-56.640625
56,-60.546875
57,-62.500000
58,-60.546875
59,-60.546875
60,-60.546875
61,-60.546875
62,-58.593750
63,-60.546875
64,-60.546875
65,-60.546875
66,-60.546875
67,-60.546875
68,-58.593750
69,-60.546875
70,-60.546875
71,-60.546875
72,-60.546875
73,-60.546875
74,-62.500000
75,-60.546875
76,-60.546875
77,-60.546875
78,-68.359375
79,-60.546875
80,-60.546875
81,-58.593750
82,-58.593750
83,-60.546875
84,-58.593750
85,-60.546875
86,-60.546875
87,-60.546875
88,-60.546875
89,-60.546875
90,-58.593750
91,-60.546875
92,-56.640625
93,-56.640625
94,-60.546875
95,-58.593750
96,-56.640625
97,-60.546875
98,-58.593750
99,-60.546875
100,-58.593750
101,-56.640625
102,-56.640625
103,-54.687500
104,-60.546875
105,-56.640625
106,-56.640625
107,-56.640625
108,-52.734375
109,-56.640625
110,-58.593750
111,-54.687500
112,-56.640625
113,-56.640625
114,-56.640625
115,-58.593750
116,-56.640625
117,-60.546875
118,-56.640625
119,-41.015625
120,-58.593750
121,-56.640625
122,-56.640625
123,-56.640625
124,-56.640625
125,-56.640625
126,-56.640625
127,-56.640625
128,-56.640625
129,-54.687500
130,-56.640625
131,-56.640625
132,-54.687500
133,-56.640625
134,-56.640625
135,-56.640625
136,-56.640625
137,-52.734375
138,-56.640625
139,-56.640625
140,-54.687500
141,-56.640625
142,-66.406250
143,-56.640625
144,-56.640625
145,-56.640625
146,-56.640625
147,-56.640625
148,-56.640625
149,-54.687500
150,-56.640625
151,-54.687500
152,-56.640625
153,-56.640625
154,-56.640625
155,-56.640625
156,-56.640625
157,-56.640625
158,-56.640625
159,-54.687500
160,-56.640625
161,-56.640625
162,-56.640625
163,-56.640625
164,-52.734375
165,-56.640625
166,-54.687500
167,-56.640625
168,-56.640625
169,-54.687500
170,-52.734375
171,-56.640625
172,-54.687500
173,-52.734375
174,-54.687500
175,-54.687500
176,-52.734375
177,-54.687500
178,-52.734375
179,-56.640625
180,-52.734375
181,-52.734375
182,-50.781250
183,-48.828125
184,-50.781250
185,-48.828125
186,-46.875000
187,-48.828125
188,-44.921875
189,-48.828125
190,-48.828125
191,-46.875000
192,-50.781250
193,-44.921875
194,-44.921875
195,-46.875000
196,-46.875000
197,-44.921875
198,-44.921875
199,-46.875000
200,-44.921875
201,-44.921875
202,-48.828125
203,-46.875000
204,-41.015625
205,-44.921875
206,-44.921875
207,-44.921875
208,-46.875000
209,-44.921875
210,-46.875000
211,-41.015625
212,-44.921875
213,-41.015625
214,-44.921875
215,-44.921875
216,-44.921875
217,-44.921875
218,-44.921875
219,-44.921875
220,-48.828125
221,-44.921875
222,-44.921875
223,-42.968750
224,-41.015625
225,-44.921875
226,-44.921875
227,-41.015625
228,-46.875000
229,-41.015625
230,-44.921875
231,-44.921875
232,-41.015625
233,-44.921875
234,-41.015625
235,-44.921875
236,-41.015625
237,-41.015625
238,-46.875000
239,-44.921875
240,-41.015625
241,-44.921875
242,-44.921875
243,-44.921875
244,-44.921875
245,-41.015625
246,-46.875000
247,-44.921875
248,-41.015625
249,-44.921875
250,-42.968750
251,-42.968750
252,-46.875000
253,-41.015625
254,-44.921875
255,-44.921875
256,-44.921875
257,-46.875000
258,-41.015625
259,-44.921875
260,-41.015625
261,-48.828125
262,-44.921875
263,-44.921875
264,-44.921875
265,-41.015625
266,-42.968750
267,-44.921875
268,-41.015625
269,-41.015625
270,-41.015625
271,-42.968750
272,-44.921875
273,-44.921875
274,-41.015625
275,-44.921875
276,-41.015625
277,-44.921875
278,-42.968750
279,-42.968750
280,-44.921875
281,-42.968750
282,-44.921875
283,-41.015625
284,-41.015625
285,-44.921875
286,-42.968750
287,-41.015625
288,-42.968750
289,-42.968750
290,-42.968750
291,-44.921875
292,-41.015625
293,-44.921875
294,-42.968750
295,-41.015625
296,-41.015625
297,-41.015625
298,-41.015625
299,-41.015625
300,-41.015625
301,-44.921875
302,-39.062500
303,-44.921875
304,-44.921875
305,-41.015625
306,-42.968750
307,-42.968750
308,-44.921875
309,-41.015625
310,-41.015625
311,-46.875000
312,-41.015625
313,-46.875000
314,-41.015625
315,-41.015625
316,-44.921875
317,-41.015625
318,-44.921875
319,-41.015625
320,-41.015625
321,-44.921875
322,-42.968750
323,-41.015625
324,-44.921875
325,-41.015625
326,-42.968750
327,-41.015625
328,-41.015625
329,-41.015625
330,-41.015625
331,-42.968750
332,-42.968750
333,-41.015625
334,-48.828125
335,-44.921875
336,-42.968750
337,-39.062500
338,-44.921875
339,-44.921875
340,-44.921875
341,-42.968750
342,-44.921875
343,-41.015625
344,-44.921875
345,-42.968750
346,-42.968750
347,-44.921875
348,-42.968750
349,-44.921875
350,-44.921875
351,-41.015625
352,-44.921875
353,-41.015625
354,-44.921875
355,-44.921875
356,-41.015625
357,-44.921875
358,-44.921875
359,-41.015625
360,-41.015625
361,-42.968750
362,-44.921875
363,-44.921875
364,-41.015625
365,-44.921875
366,-44.921875
367,-44.921875
368,-41.015625
369,-44.921875
370,-44.921875
371,-41.015625
372,-44.921875
373,-44.921875
374,-41.015625
375,-44.921875
376,-42.968750
377,-44.921875
378,-46.875000
379,-44.921875
380,-44.921875
381,-44.921875
382,-44.921875
383,-44.921875
384,-42.968750
385,-39.062500
386,-44.921875
387,-41.015625
388,-44.921875
389,-41.015625
390,-44.921875
391,-44.921875
392,-41.015625
393,-46.875000
394,-44.921875
395,-44.921875
396,-44.921875
397,-42.968750
398,-44.921875
399,-44.921875
400,-44.921875
401,-41.015625
402,-44.921875
403,-42.968750
404,-41.015625
405,-44.921875
406,-39.062500
407,-44.921875
408,-44.921875
409,-44.921875
410,-46.875000
411,-42.968750
412,-44.921875
413,-44.921875
414,-41.015625
415,-44.921875
416,-35.156250
417,-44.921875
418,-44.921875
419,-41.015625
420,-46.875000
421,-41.015625
422,-44.921875
423,-41.015625
424,-44.921875
425,-44.921875
426,-44.921875
427,-44.921875
428,-41.015625
429,-46.875000
430,-41.015625
431,-44.921875
432,-41.015625
433,-42.968750
434,-44.921875
435,-48.828125
436,-41.015625
437,-41.015625
438,-42.968750
439,-37.109375
440,-29.296875
441,-41.015625
442,-42.968750
443,-41.015625
444,-41.015625
445,-41.015625
446,-41.015625
447,-44.921875
448,-42.968750
449,-44.921875
450,-41.015625
451,-41.015625
452,-42.968750
453,-41.015625
454,-44.921875
455,-41.015625
456,-41.015625
457,-44.921875
458,-44.921875
459,-44.921875
460,-41.015625
461,-44.921875
462,-42.968750
463,-41.015625
464,-44.921875
465,-44.921875
466,-41.015625
467,-44.921875
468,-41.015625
469,-44.921875
470,-44.921875
471,-52.734375
472,-44.921875
473,-41.015625
474,-42.968750
475,-41.015625
476,-41.015625
477,-44.921875
478,-41.015625
479,-41.015625
480,-44.921875
481,-41.015625
482,-44.921875
483,-42.968750
484,-41.015625
485,-41.015625
486,-41.015625
487,-41.015625
488,-44.921875
489,-41.015625
490,-44.921875
491,-41.015625
492,-42.968750
493,-41.015625
494,-41.015625
495,-44.921875
496,-41.015625
497,-60.546875
498,-41.015625
499,-42.968750
500,-44.921875
501,-41.015625
502,-41.015625
503,-37.109375
504,-31.250000
505,-41.015625
506,-41.015625
507,-41.015625
508,-42.968750
509,-42.968750
510,-44.921875
511,-42.968750
512,-44.921875
513,-46.875000
514,-48.828125
515,-44.921875
516,-41.015625
517,-41.015625
518,-41.015625
519,-41.015625
520,-44.921875
521,-41.015625
522,-44.921875
523,-41.015625
524,-44.921875
525,-41.015625
526,-41.015625
527,-41.015625
528,-41.015625
529,-44.921875
530,-41.015625
531,-44.921875
532,-41.015625
533,-41.015625
534,-41.015625
535,-35.156250
536,-44.921875
537,-41.015625
538,-41.015625
539,-41.015625
540,-41.015625
541,-44.921875
542,-41.015625
543,-41.015625
544,-42.968750
545,-42.968750
546,-41.015625
547,-42.968750
548,-41.015625
549,-41.015625
550,-41.015625
551,-42.968750
552,-41.015625
553,-41.015625
554,-41.015625
555,-41.015625
556,-41.015625
557,-42.968750
558,-42.968750
559,-44.921875
560,-41.015625
561,-41.015625
562,-44.921875
563,-41.015625
564,-44.921875
565,-41.015625
566,-39.062500
567,-41.015625
568,-41.015625
569,-41.015625
570,-41.015625
571,-41.015625
572,-48.828125
573,-41.015625
574,-44.921875
575,-41.015625
576,-41.015625
577,-44.921875
578,-41.015625
579,-41.015625
580,-41.015625
581,-39.062500
582,-41.015625
583,-41.015625
584,-41.015625
585,-41.015625
586,-41.015625
587,-41.015625
588,-41.015625
589,-41.015625
590,-44.921875
591,-41.015625
592,-41.015625
593,-41.015625
594,-41.015625
595,-41.015625
596,-41.015625
597,-41.015625
598,-41.015625
599,-41.015625
600,-41.015625
601,-41.015625
602,-41.015625
603,-41.015625
604,-37.109375
605,-37.109375
606,-42.968750
607,-41.015625
608,-41.015625
609,-41.015625
610,-44.921875
611,-44.921875
612,-41.015625
613,-42.968750
614,-44.921875
615,-44.921875
616,-44.921875
617,-44.921875
618,-44.921875
619,-44.921875
620,-44.921875
621,-46.875000
622,-44.921875
623,-46.875000
624,-48.828125
625,-44.921875
626,-46.875000
627,-46.875000
628,-46.875000
629,-48.828125
630,-48.828125
631,-46.875000
632,-48.828125
633,-48.828125
634,-48.828125
635,-48.828125
636,-50.781250
637,-52.734375
638,-48.828125
639,-52.734375
640,-50.781250
641,-54.687500
642,-54.687500
643,-52.734375
644,-56.640625
645,-54.687500
646,-54.687500
647,-52.734375
648,-54.687500
649,-56.640625
650,-54.687500
651,-56.640625
652,-50.781250
653,-54.687500
654,-56.640625
655,-54.687500
656,-56.640625
657,-56.640625
658,-52.734375
659,-56.640625
660,-54.687500
661,-56.640625
662,-56.640625
663,-54.687500
664,-56.640625
665,-54.687500
666,-56.640625
667,-56.640625
668,-52.734375
669,-56.640625
670,-54.687500
671,-60.546875
672,-56.640625
673,-56.640625
674,-54.687500
675,-56.640625
676,-56.640625
677,-54.687500
678,-58.593750
679,-54.687500
680,-56.640625
681,-56.640625
682,-54.687500
683,-54.687500
684,-52.734375
685,-56.640625
686,-56.640625
687,-56.640625
688,-54.687500
689,-56.640625
690,-54.687500
691,-56.640625
692,-54.687500
693,-54.687500
694,-56.640625
695,-54.687500
696,-58.593750
697,-50.781250
698,-54.687500
699,-52.734375
700,-52.734375
701,-54.687500
702,-52.734375
703,-56.640625
704,-50.781250
705,-50.781250
706,-52.734375
707,-54.687500
708,-54.687500
709,-56.640625
710,-52.734375
711,-54.687500
712,-54.687500
713,-54.687500
714,-56.640625
715,-54.687500
716,-54.687500
717,-52.734375
718,-54.687500
719,-52.734375
720,-50.781250
721,-54.687500
722,-52.734375
723,-50.781250
724,-56.640625
725,-52.734375
726,-54.687500
727,-56.640625
728,-52.734375
729,-60.546875
730,-54.687500
731,-52.734375
732,-56.640625
733,-48.828125
734,-54.687500
735,-56.640625
736,-50.781250
737,-54.687500
738,-52.734375
739,-52.734375
740,-54.687500
741,-52.734375
742,-52.734375
743,-54.687500
744,-52.734375
745,-52.734375
746,-48.828125
747,-56.640625
748,-54.687500
749,-50.781250
750,-56.640625
751,-54.687500
752,-54.687500
753,-54.687500
754,-52.734375
755,-52.734375
756,-54.687500
757,-52.734375
758,-54.687500
759,-46.875000
760,-52.734375
761,-56.640625
762,-50.781250
763,-54.687500
764,-56.640625
765,-52.734375
766,-52.734375
767,-54.687500
768,-52.734375
769,-54.687500
770,-50.781250
771,-54.687500
772,-52.734375
773,-48.828125
774,-54.687500
775,-52.734375
776,-54.687500
777,-54.687500
778,-50.781250
779,-54.687500
780,-50.781250
781,-54.687500
782,-54.687500
783,-52.734375
784,-54.687500
785,-54.687500
786,-48.828125
787,-54.687500
788,-54.687500
789,-54.687500
790,-54.687500
791,-54.687500
792,-56.640625
793,-50.781250
794,-68.359375
795,-54.687500
796,-48.828125
797,-50.781250
798,-54.687500
799,-48.828125
800,-37.109375
801,-50.781250
802,-50.781250
803,-54.687500
804,-50.781250
805,-52.734375
806,-54.687500
807,-50.781250
808,-54.687500
809,-50.781250
810,-52.734375
811,-50.781250
812,-54.687500
813,-52.734375
814,-50.781250
815,-50.781250
816,-52.734375
817,-52.734375
818,-52.734375
819,-52.734375
820,-50.781250
821,-52.734375
822,-50.781250
823,-56.640625
824,-50.781250
825,-50.781250
826,-54.687500
827,-48.828125
828,-50.781250
829,-54.687500
830,-50.781250
831,-54.687500
832,-48.828125
833,-48.828125
834,-52.734375
835,-48.828125
836,-48.828125
837,-48.828125
838,-52.734375
839,-52.734375
840,-48.828125
841,-50.781250
842,-52.734375
843,-52.734375
844,-52.734375
845,-48.828125
846,-52.734375
847,-50.781250
848,-52.734375
849,-52.734375
850,-52.734375
851,-54.687500
852,-52.734375
853,-50.781250
854,-46.875000
855,-52.734375
856,-48.828125
857,-54.687500
858,-48.828125
859,-54.687500
860,-50.781250
861,-52.734375
862,-52.734375
863,-52.734375
864,-52.734375
865,-48.828125
866,-50.781250
867,-52.734375
868,-52.734375
869,-48.828125
870,-52.734375
871,-54.687500
872,-54.687500
873,-52.734375
874,-48.828125
875,-56.640625
876,-48.828125
877,-50.781250
878,-50.781250
879,-48.828125
880,-52.734375
881,-52.734375
882,-48.828125
883,-50.781250
884,-48.828125
885,-50.781250
886,-48.828125
887,-60.546875
888,-50.781250
889,-46.875000
890,-46.875000
891,-44.921875
892,-46.875000
893,-48.828125
894,-44.921875
895,-44.921875
896,-46.875000
897,-44.921875
898,-44.921875
899,-44.921875
900,-46.875000
901,-39.062500
902,-44.921875
903,-44.921875
904,-44.921875
905,-44.921875
906,-41.015625
907,-44.921875
908,-41.015625
909,-44.921875
910,-44.921875
911,-41.015625
912,-44.921875
913,-41.015625
914,-41.015625
915,-44.921875
916,-41.015625
917,-44.921875
918,-41.015625
919,-41.015625
920,-44.921875
921,-42.968750
922,-41.015625
923,-50.781250
924,-41.015625
925,-41.015625
926,-44.921875
927,-41.015625
928,-41.015625
929,-41.015625
930,-41.015625
931,-41.015625
932,-41.015625
933,-46.875000
934,-44.921875
935,-41.015625
936,-42.968750
937,-41.015625
938,-41.015625
939,-44.921875
940,-41.015625
941,-42.968750
942,-41.015625
943,-41.015625
944,-41.015625
945,-42.968750
946,-44.921875
947,-41.015625
948,-44.921875
949,-44.921875
950,-44.921875
951,-44.921875
952,-44.921875
953,-41.015625
954,-41.015625
955,-41.015625
956,-41.015625
957,-44.921875
958,-41.015625
959,-46.875000
960,-41.015625
961,-41.015625
962,-44.921875
963,-41.015625
964,-42.968750
965,-44.921875
966,-41.015625
967,-41.015625
968,-41.015625
969,-41.015625
970,-41.015625
971,-41.015625
972,-41.015625
973,-42.968750
974,-41.015625
975,-44.921875
976,-41.015625
977,-44.921875
978,-41.015625
979,-42.968750
980,-44.921875
981,-41.015625
982,-39.062500
983,-44.921875
984,-41.015625
985,-44.921875
986,-41.015625
987,-41.015625
988,-42.968750
989,-41.015625
990,-41.015625
991,-44.921875
992,-41.015625
993,-42.968750
994,-41.015625
995,-37.109375
996,-41.015625
997,-37.109375
998,-44.921875
999,-41.015625
1000,-42.968750
1001,-41.015625
1002,-41.015625
1003,-44.921875
1004,-41.015625
1005,-41.015625
1006,-41.015625
1007,-41.015625
1008,-41.015625
1009,-42.968750
1010,-41.015625
1011,-44.921875
1012,-41.015625
1013,-44.921875
1014,-41.015625
1015,-39.062500
1016,-41.015625
1017,-41.015625
1018,-41.015625
1019,-41.015625
1020,-41.015625
1021,-41.015625
1022,-41.015625
1023,-42.968750
1024,-39.062500
1025,-44.921875
1026,-41.015625
1027,-42.968750
1028,-39.062500
1029,-41.015625
1030,-41.015625
1031,-41.015625
1032,-41.015625
1033,-39.062500
1034,-44.921875
1035,-41.015625
1036,-44.921875
1037,-44.921875
1038,-44.921875
1039,-44.921875
1040,-41.015625
1041,-42.968750
1042,-42.968750
1043,-44.921875
1044,-42.968750
1045,-44.921875
1046,-41.015625
1047,-44.921875
1048,-41.015625
1049,-41.015625
1050,-41.015625
1051,-41.015625
1052,-41.015625
1053,-41.015625
1054,-44.921875
1055,-41.015625
1056,-42.968750
1057,-46.875000
1058,-41.015625
1059,-42.968750
1060,-39.062500
1061,-44.921875
1062,-44.921875
1063,-41.015625
1064,-44.921875
1065,-41.015625
1066,-41.015625
1067,-44.921875
1068,-41.015625
1069,-41.015625
1070,-44.921875
1071,-41.015625
1072,-44.921875
1073,-42.968750
1074,-41.015625
1075,-41.015625
1076,-41.015625
1077,-44.921875
1078,-41.015625
1079,-42.968750
1080,-44.921875
1081,-41.015625
1082,-41.015625
1083,-42.968750
1084,-42.968750
1085,-41.015625
1086,-41.015625
1087,-44.921875
1088,-42.968750
1089,-41.015625
1090,-42.968750
1091,-41.015625
1092,-41.015625
1093,-42.968750
1094,-41.015625
1095,-41.015625
1096,-41.015625
1097,-41.015625
1098,-42.968750
1099,-41.015625
1100,-44.921875
1101,-42.968750
1102,-41.015625
1103,-42.968750
1104,-41.015625
1105,-44.921875
1106,-42.968750
1107,-41.015625
1108,-41.015625
1109,-41.015625
1110,-41.015625
1111,-44.921875
1112,-42.968750
1113,-60.546875
1114,-42.968750
1115,-41.015625
1116,-41.015625
1117,-41.015625
1118,-44.921875
1119,-41.015625
1120,-41.015625
1121,-44.921875
1122,-41.015625
1123,-41.015625
1124,-44.921875
1125,-41.015625
1126,-42.968750
1127,-41.015625
1128,-41.015625
1129,-44.921875
1130,-41.015625
1131,-44.921875
1132,-44.921875
1133,-41.015625
1134,-41.015625
1135,-41.015625
1136,-41.015625
1137,-41.015625
1138,-41.015625
1139,-44.921875
1140,-41.015625
1141,-44.921875
1142,-42.968750
1143,-39.062500
1144,-41.015625
1145,-41.015625
1146,-44.921875
1147,-41.015625
1148,-42.968750
1149,-41.015625
1150,-41.015625
1151,-44.921875
1152,-39.062500
1153,-44.921875
1154,-41.015625
1155,-41.015625
1156,-42.968750
1157,-41.015625
1158,-44.921875
1159,-42.968750
1160,-41.015625
1161,-48.828125
1162,-41.015625
1163,-42.968750
1164,-44.921875
1165,-41.015625
1166,-44.921875
1167,-41.015625
1168,-44.921875
1169,-42.968750
1170,-41.015625
1171,-44.921875
1172,-42.968750
1173,-41.015625
1174,-42.968750
1175,-44.921875
1176,-41.015625
1177,-41.015625
1178,-41.015625
1179,-41.015625
1180,-44.921875
1181,-41.015625
1182,-44.921875
1183,-39.062500
1184,-35.156250
1185,-42.968750
1186,-41.015625
1187,-44.921875
1188,-41.015625
1189,-41.015625
1190,-41.015625
1191,-41.015625
1192,-41.015625
1193,-48.828125
1194,-39.062500
1195,-44.921875
1196,-41.015625
1197,-41.015625
1198,-44.921875
1199,-41.015625
1200,-42.968750
1201,-41.015625
1202,-44.921875
1203,-41.015625
1204,-41.015625
1205,-41.015625
1206,-42.968750
1207,-41.015625
1208,-44.921875
1209,-41.015625
1210,-44.921875
1211,-44.921875
1212,-41.015625
1213,-42.968750
1214,-41.015625
1215,-42.968750
1216,-42.968750
1217,-41.015625
1218,-44.921875
1219,-41.015625
1220,-41.015625
1221,-44.921875
1222,-41.015625
1223,-41.015625
1224,-41.015625
1225,-60.546875
1226,-41.015625
1227,-41.015625
1228,-42.968750
1229,-41.015625
1230,-44.921875
1231,-41.015625
1232,-41.015625
1233,-42.968750
1234,-56.640625
1235,-41.015625
1236,-41.015625
1237,-42.968750
1238,-41.015625
1239,-41.015625
1240,-41.015625
1241,-41.015625
1242,-41.015625
1243,-41.015625
1244,-41.015625
1245,-31.250000
1246,-41.015625
1247,-41.015625
1248,-41.015625
1249,-41.015625
1250,-41.015625
1251,-41.015625
1252,-41.015625
1253,-42.968750
1254,-41.015625
1255,-42.968750
1256,-42.968750
1257,-41.015625
1258,-44.921875
1259,-41.015625
1260,-41.015625
1261,-44.921875
1262,-42.968750
1263,-44.921875
1264,-44.921875
1265,-41.015625
1266,-44.921875
1267,-44.921875
1268,-44.921875
1269,-44.921875
1270,-39.062500
1271,-44.921875
1272,-41.015625
1273,-39.062500
1274,-44.921875
1275,-41.015625
1276,-42.968750
1277,-44.921875
1278,-44.921875
1279,-44.921875
1280,-41.015625
1281,-44.921875
1282,-41.015625
1283,-41.015625
1284,-46.875000
1285,-41.015625
1286,-41.015625
1287,-41.015625
1288,-41.015625
1289,-44.921875
1290,-41.015625
1291,-41.015625
1292,-44.921875
1293,-39.062500
1294,-44.921875
1295,-41.015625
1296,-41.015625
1297,-41.015625
1298,-41.015625
1299,-41.015625
1300,-42.968750
1301,-41.015625
1302,-44.921875
1303,-41.015625
1304,-41.015625
1305,-44.921875
1306,-41.015625
1307,-44.921875
1308,-41.015625
1309,-44.921875
1310,-42.968750
1311,-41.015625
1312,-48.828125
1313,-41.015625
1314,-44.921875
1315,-42.968750
1316,-41.015625
1317,-44.921875
1318,-44.921875
1319,-42.968750
1320,-41.015625
1321,-41.015625
1322,-41.015625
1323,-44.921875
1324,-41.015625
1325,-44.921875
1326,-42.968750
1327,-41.015625
1328,-41.015625
1329,-42.968750
1330,-41.015625
1331,-41.015625
1332,-41.015625
1333,-42.968750
1334,-41.015625
1335,-42.968750
1336,-42.968750
1337,-41.015625
1338,-41.015625
1339,-42.968750
1340,-41.015625
1341,-44.921875
1342,-41.015625
1343,-44.921875
1344,-41.015625
1345,-41.015625
1346,-44.921875
1347,-41.015625
1348,-41.015625
1349,-41.015625
1350,-41.015625
1351,-44.921875
1352,-41.015625
1353,-41.015625
1354,-41.015625
1355,-41.015625
1356,-44.921875
1357,-41.015625
1358,-42.968750
1359,-44.921875
1360,-41.015625
1361,-41.015625
1362,-41.015625
1363,-41.015625
1364,-44.921875
1365,-41.015625
1366,-44.921875
1367,-44.921875
1368,-42.968750
1369,-41.015625
1370,-41.015625
1371,-48.828125
1372,-41.015625
1373,-41.015625
1374,-44.921875
1375,-41.015625
1376,-44.921875
1377,-41.015625
1378,-41.015625
1379,-44.921875
1380,-41.015625
1381,-41.015625
1382,-41.015625
1383,-41.015625
1384,-42.968750
1385,-42.968750
1386,-41.015625
1387,-44.921875
1388,-41.015625
1389,-41.015625
1390,-41.015625
1391,-44.921875
1392,-41.015625
1393,-41.015625
1394,-44.921875
1395,-41.015625
1396,-41.015625
1397,-41.015625
1398,-41.015625
1399,-41.015625
1400,-41.015625
1401,-44.921875
1402,-41.015625
1403,-42.968750
1404,-41.015625
1405,-41.015625
1406,-44.921875
1407,-39.062500
1408,-41.015625
1409,-41.015625
1410,-41.015625
1411,-41.015625
1412,-41.015625
1413,-41.015625
1414,-41.015625
1415,-41.015625
1416,-44.921875
1417,-41.015625
1418,-41.015625
1419,-41.015625
1420,-39.062500
1421,-44.921875
1422,-41.015625
1423,-39.062500
1424,-44.921875
1425,-41.015625
1426,-44.921875
1427,-41.015625
1428,-41.015625
1429,-42.968750
1430,-41.015625
1431,-41.015625
1432,-44.921875
1433,-39.062500
1434,-41.015625
1435,-44.921875
1436,-41.015625
1437,-42.968750
1438,-41.015625
1439,-41.015625
1440,-44.921875
1441,-41.015625
1442,-41.015625
1443,-41.015625
1444,-41.015625
1445,-41.015625
1446,-39.062500
1447,-41.015625
1448,-41.015625
1449,-41.015625
1450,-42.968750
1451,-41.015625
1452,-41.015625
1453,-41.015625
1454,-39.062500
1455,-41.015625
1456,-41.015625
1457,-41.015625
1458,-39.062500
1459,-41.015625
1460,-44.921875
1461,-39.062500
1462,-42.968750
1463,-41.015625
1464,-41.015625
1465,-41.015625
1466,-41.015625
1467,-46.875000
1468,-41.015625
1469,-41.015625
1470,-42.968750
1471,-41.015625
1472,-41.015625
1473,-41.015625
1474,-41.015625
1475,-41.015625
1476,-41.015625
1477,-41.015625
1478,-41.015625
1479,-41.015625
1480,-42.968750
1481,-41.015625
1482,-41.015625
1483,-41.015625
1484,-39.062500
1485,-41.015625
1486,-39.062500
1487,-39.062500
1488,-41.015625
1489,-41.015625
1490,-41.015625
1491,-41.015625
1492,-41.015625
1493,-41.015625
1494,-41.015625
1495,-41.015625
1496,-41.015625
1497,-41.015625
1498,-44.921875
1499,-41.015625
1500,-44.921875
1501,-41.015625
1502,-41.015625
1503,-42.968750
1504,-44.921875
1505,-44.921875
1506,-44.921875
1507,-41.015625
1508,-44.921875
1509,-41.015625
1510,-44.921875
1511,-42.968750
1512,-42.968750
1513,-44.921875
1514,-41.015625
1515,-42.968750
1516,-41.015625
1517,-41.015625
1518,-44.921875
1519,-39.062500
1520,-42.968750
1521,-41.015625
1522,-37.109375
1523,-41.015625
1524,-41.015625
1525,-41.015625
1526,-41.015625
1527,-41.015625
1528,-44.921875
1529,-41.015625
1530,-41.015625
1531,-41.015625
1532,-39.062500
1533,-41.015625
1534,-41.015625
1535,-39.062500
1536,-41.015625
1537,-39.062500
1538,-41.015625
1539,-39.062500
1540,-39.062500
1541,-41.015625
1542,-39.062500
1543,-41.015625
1544,-39.062500
1545,-41.015625
1546,-42.968750
1547,-41.015625
1548,-41.015625
1549,-41.015625
1550,-41.015625
1551,-42.968750
1552,-41.015625
1553,-37.109375
1554,-44.921875
1555,-41.015625
1556,-46.875000
1557,-44.921875
1558,-44.921875
1559,-44.921875
1560,-44.921875
1561,-46.875000
1562,-44.921875
1563,-48.828125
1564,-46.875000
1565,-44.921875
1566,-46.875000
1567,-48.828125
1568,-56.640625
1569,-48.828125
1570,-44.921875
1571,-48.828125
1572,-50.781250
1573,-50.781250
1574,-48.828125
1575,-48.828125
1576,-50.781250
1577,-54.687500
1578,-50.781250
1579,-54.687500
1580,-48.828125
1581,-50.781250
1582,-52.734375
1583,-50.781250
1584,-54.687500
1585,-52.734375
1586,-60.546875
1587,-52.734375
1588,-56.640625
1589,-54.687500
1590,-52.734375
1591,-56.640625
1592,-52.734375
1593,-56.640625
1594,-56.640625
1595,-56.640625
1596,-56.640625
1597,-56.640625
1598,-56.640625
1599,-56.640625
1600,-56.640625
1601,-56.640625
1602,-58.593750
1603,-62.500000
1604,-58.593750
1605,-58.593750
1606,-58.593750
1607,-60.546875
1608,-58.593750
1609,-62.500000
1610,-56.640625
1611,-60.546875
1612,-60.546875
1613,-60.546875
1614,-62.500000
1615,-56.640625
1616,-60.546875
1617,-56.640625
1618,-60.546875
1619,-60.546875
1620,-58.593750
1621,-60.546875
1622,-60.546875
1623,-60.546875
1624,-60.546875
1625,-56.640625
1626,-60.546875
1627,-60.546875
1628,-58.593750
1629,-60.546875
1630,-60.546875
1631,-56.640625
1632,-60.546875
1633,-56.640625
1634,-60.546875
1635,-56.640625
1636,-60.546875
1637,-58.593750
1638,-56.640625
1639,-60.546875
1640,-60.546875
1641,-60.546875
1642,-60.546875
1643,-56.640625
1644,-60.546875
1645,-56.640625
1646,-56.640625
1647,-58.593750
1648,-60.546875
1649,-60.546875
1650,-62.500000
1651,-60.546875
1652,-56.640625
1653,-62.500000
1654,-58.593750
1655,-60.546875
1656,-60.546875
1657,-56.640625
1658,-62.500000
1659,-60.546875
1660,-60.546875
1661,-60.546875
1662,-58.593750
1663,-60.546875
1664,-56.640625
1665,-60.546875
1666,-60.546875
1667,-56.640625
1668,-54.687500
1669,-60.546875
1670,-58.593750
1671,-62.500000
1672,-60.546875
1673,-60.546875
1674,-60.546875
1675,-60.546875
1676,-60.546875
1677,-60.546875
1678,-60.546875
1679,-60.546875
1680,-56.640625
1681,-58.593750
1682,-60.546875
1683,-60.546875
1684,-60.546875
1685,-60.546875
1686,-60.546875
1687,-60.546875
1688,-60.546875
1689,-58.593750
1690,-60.546875
1691,-60.546875
1692,-64.453125
1693,-60.546875
1694,-60.546875
1695,-60.546875
1696,-60.546875
1697,-60.546875
1698,-62.500000
1699,-60.546875
1700,-60.546875
1701,-60.546875
1702,-64.453125
1703,-62.500000
1704,-64.453125
1705,-60.546875
1706,-60.546875
1707,-62.500000
1708,-58.593750
1709,-62.500000
1710,-60.546875
1711,-60.546875
1712,-62.500000
1713,-60.546875
1714,-60.546875
1715,-58.593750
1716,-60.546875
1717,-62.500000
1718,-62.500000
1719,-60.546875
1720,-62.500000
1721,-62.500000
1722,-62.500000
1723,-62.500000
1724,-64.453125
1725,-64.453125
1726,-60.546875
1727,-62.500000
1728,-60.546875
1729,-60.546875
1730,-60.546875
1731,-60.546875
1732,-60.546875
1733,-60.546875
1734,-60.546875
1735,-60.546875
1736,-60.546875
1737,-64.453125
1738,-60.546875
1739,-62.500000
1740,-62.500000
1741,-62.500000
1742,-60.546875
1743,-60.546875
1744,-60.546875
1745,-60.546875
1746,-60.546875
1747,-64.453125
1748,-60.546875
1749,-62.500000
1750,-62.500000
1751,-62.500000
1752,-64.453125
1753,-64.453125
1754,-62.500000
1755,-62.500000
1756,-62.500000
1757,-62.500000
1758,-60.546875
1759,-64.453125
1760,-64.453125
1761,-64.453125
1762,-64.453125
1763,-64.453125
1764,-68.359375
1765,-60.546875
1766,-62.500000
1767,-64.453125
1768,-62.500000
1769,-64.453125
1770,-62.500000
1771,-64.453125
1772,-64.453125
1773,-62.500000
1774,-66.406250
1775,-60.546875
1776,-62.500000
1777,-62.500000
1778,-62.500000
1779,-64.453125
1780,-62.500000
1781,-66.406250
1782,-60.546875
1783,-62.500000
1784,-64.453125
1785,-62.500000
1786,-60.546875
1787,-66.406250
1788,-60.546875
1789,-62.500000
1790,-60.546875
1791,-60.546875
1792,-64.453125
1793,-60.546875
1794,-60.546875
1795,-62.500000
1796,-60.546875
1797,-62.500000
1798,-60.546875
1799,-60.546875
1800,-60.546875
1801,-60.546875
1802,-64.453125
1803,-58.593750
1804,-62.500000
1805,-60.546875
1806,-58.593750
1807,-60.546875
1808,-60.546875
1809,-60.546875
1810,-60.546875
1811,-60.546875
1812,-60.546875
1813,-58.593750
1814,-62.500000
1815,-60.546875
1816,-60.546875
1817,-60.546875
1818,-60.546875
1819,-56.640625
1820,-62.500000
1821,-60.546875
1822,-60.546875
1823,-56.640625
1824,-60.546875
1825,-60.546875
1826,-56.640625
1827,-60.546875
1828,-60.546875
1829,-58.593750
1830,-56.640625
1831,-56.640625
1832,-58.593750
1833,-54.687500
1834,-56.640625
1835,-58.593750
1836,-56.640625
1837,-64.453125
1838,-56.640625
1839,-52.734375
1840,-56.640625
1841,-56.640625
1842,-56.640625
1843,-56.640625
1844,-56.640625
1845,-58.593750
1846,-54.687500
1847,-56.640625
1848,-52.734375
1849,-56.640625
1850,-56.640625
1851,-54.687500
1852,-56.640625
1853,-56.640625
1854,-56.640625
1855,-60.546875
1856,-56.640625
1857,-56.640625
1858,-56.640625
1859,-56.640625
1860,-56.640625
1861,-56.640625
1862,-56.640625
1863,-56.640625
1864,-60.546875
1865,-56.640625
1866,-56.640625
1867,-56.640625
1868,-56.640625
1869,-64.453125
1870,-56.640625
1871,-56.640625
1872,-56.640625
1873,-56.640625
1874,-52.734375
1875,-60.546875
1876,-64.453125
1877,-54.687500
1878,-56.640625
1879,-54.687500
1880,-56.640625
1881,-56.640625
1882,-56.640625
1883,-56.640625
1884,-52.734375
1885,-56.640625
1886,-54.687500
1887,-54.687500
1888,-56.640625
1889,-54.687500
1890,-56.640625
1891,-56.640625
1892,-60.546875
1893,-56.640625
1894,-54.687500
1895,-56.640625
1896,-54.687500
1897,-54.687500
1898,-56.640625
1899,-56.640625
1900,-56.640625
1901,-48.828125
1902,-56.640625
1903,-56.640625
1904,-54.687500
1905,-56.640625
1906,-54.687500
1907,-56.640625
1908,-56.640625
1909,-56.640625
1910,-56.640625
1911,-54.687500
1912,-56.640625
1913,-54.687500
1914,-54.687500
1915,-56.640625
1916,-54.687500
1917,-60.546875
1918,-54.687500
1919,-60.546875
1920,-56.640625
1921,-52.734375
1922,-56.640625
1923,-54.687500
1924,-56.640625
1925,-52.734375
1926,-56.640625
1927,-54.687500
1928,-56.640625
1929,-54.687500
1930,-52.734375
1931,-56.640625
1932,-50.781250
1933,-60.546875
1934,-56.640625
1935,-56.640625
1936,-56.640625
1937,-54.687500
1938,-56.640625
1939,-54.687500
1940,-54.687500
1941,-56.640625
1942,-60.546875
1943,-56.640625
1944,-54.687500
1945,-54.687500
1946,-54.687500
1947,-54.687500
1948,-54.687500
1949,-54.687500
1950,-54.687500
1951,-56.640625
1952,-56.640625
1953,-56.640625
1954,-56.640625
1955,-52.734375
1956,-52.734375
1957,-54.687500
1958,-54.687500
1959,-54.687500
1960,-54.687500
1961,-56.640625
1962,-54.687500
1963,-56.640625
1964,-56.640625
1965,-54.687500
1966,-56.640625
1967,-56.640625
1968,-54.687500
1969,-54.687500
1970,-54.687500
1971,-56.640625
1972,-52.734375
1973,-52.734375
1974,-56.640625
1975,-54.687500
1976,-56.640625
1977,-54.687500
1978,-54.687500
1979,-56.640625
1980,-54.687500
1981,-54.687500
1982,-54.687500
1983,-60.546875
1984,-56.640625
1985,-52.734375
1986,-56.640625
1987,-52.734375
1988,-50.781250
1989,-54.687500
1990,-54.687500
1991,-54.687500
1992,-54.687500
1993,-54.687500
1994,-56.640625
1995,-52.734375
1996,-54.687500
1997,-56.640625
1998,-52.734375
1999,-54.687500
2000,-54.687500
2001,-54.687500
2002,-56.640625
2003,-50.781250
2004,-56.640625
2005,-52.734375
2006,-52.734375
2007,-52.734375
2008,-50.781250
2009,-56.640625
2010,-52.734375
2011,-54.687500
2012,-52.734375
2013,-50.781250
2014,-54.687500
2015,-60.546875
2016,-50.781250
2017,-52.734375
2018,-54.687500
2019,-50.781250
2020,-52.734375
2021,-50.781250
2022,-52.734375
2023,-48.828125
2024,-48.828125
2025,-48.828125
2026,-50.781250
2027,-52.734375
2028,-48.828125
2029,-56.640625
2030,-48.828125
2031,-48.828125
2032,-50.781250
2033,-48.828125
2034,-48.828125
2035,-48.828125
2036,-46.875000
2037,-50.781250
2038,-48.828125
2039,-48.828125
2040,-46.875000
2041,-48.828125
2042,-48.828125
2043,-48.828125
2044,-44.921875
2045,-50.781250
2046,-46.875000
2047,-46.875000
2048,-48.828125
2049,-44.921875
2050,-46.875000
2051,-44.921875
2052,-46.875000
2053,-44.921875
2054,-44.921875
2055,-46.875000
2056,-39.062500
2057,-44.921875
2058,-44.921875
2059,-44.921875
2060,-44.921875
2061,-41.015625
2062,-44.921875
2063,-42.968750
2064,-44.921875
2065,-44.921875
2066,-44.921875
2067,-44.921875
2068,-44.921875
2069,-44.921875
2070,-44.921875
2071,-44.921875
2072,-41.015625
2073,-44.921875
2074,-41.015625
2075,-46.875000
2076,-44.921875
2077,-42.968750
2078,-44.921875
2079,-39.062500
2080,-44.921875
2081,-41.015625
2082,-44.921875
2083,-44.921875
2084,-41.015625
2085,-41.015625
2086,-44.921875
2087,-44.921875
2088,-41.015625
2089,-44.921875
2090,-41.015625
2091,-44.921875
2092,-41.015625
2093,-44.921875
2094,-44.921875
2095,-41.015625
2096,-44.921875
2097,-41.015625
2098,-44.921875
2099,-42.968750
2100,-41.015625
2101,-42.968750
2102,-41.015625
2103,-42.968750
2104,-44.921875
2105,-41.015625
2106,-44.921875
2107,-46.875000
2108,-44.921875
2109,-44.921875
2110,-41.015625
2111,-44.921875
2112,-44.921875
2113,-42.968750
2114,-44.921875
2115,-42.968750
2116,-44.921875
2117,-44.921875
2118,-44.921875
2119,-44.921875
2120,-33.203125
2121,-41.015625
2122,-44.921875
2123,-41.015625
2124,-41.015625
2125,-44.921875
2126,-41.015625
2127,-44.921875
2128,-41.015625
2129,-44.921875
2130,-44.921875
2131,-41.015625
2132,-44.921875
2133,-44.921875
2134,-42.968750
2135,-44.921875
2136,-44.921875
2137,-44.921875
2138,-37.109375
2139,-44.921875
2140,-44.921875
2141,-42.968750
2142,-44.921875
2143,-44.921875
2144,-41.015625
2145,-46.875000
2146,-44.921875
2147,-41.015625
2148,-41.015625
2149,-44.921875
2150,-44.921875
2151,-41.015625
2152,-41.015625
2153,-41.015625
2154,-44.921875
2155,-44.921875
2156,-44.921875
2157,-44.921875
2158,-41.015625
2159,-44.921875
2160,-44.921875
2161,-41.015625
2162,-44.921875
2163,-41.015625
2164,-44.921875
2165,-44.921875
2166,-41.015625
2167,-48.828125
2168,-44.921875
2169,-41.015625
2170,-44.921875
2171,-42.968750
2172,-44.921875
2173,-44.921875
2174,-42.968750
2175,-44.921875
2176,-42.968750
2177,-44.921875
2178,-44.921875
2179,-44.921875
2180,-41.015625
2181,-44.921875
2182,-41.015625
2183,-42.968750
2184,-54.687500
2185,-41.015625
2186,-44.921875
2187,-44.921875
2188,-42.968750
2189,-44.921875
2190,-41.015625
2191,-44.921875
2192,-41.015625
2193,-41.015625
2194,-46.875000
2195,-42.968750
2196,-46.875000
2197,-41.015625
2198,-52.734375
2199,-41.015625
2200,-41.015625
2201,-44.921875
2202,-44.921875
2203,-44.921875
2204,-44.921875
2205,-41.015625
2206,-44.921875
2207,-44.921875
2208,-44.921875
2209,-44.921875
2210,-41.015625
2211,-44.921875
2212,-44.921875
2213,-44.921875
2214,-46.875000
2215,-41.015625
2216,-33.203125
2217,-41.015625
2218,-42.968750
2219,-44.921875
2220,-41.015625
2221,-46.875000
2222,-41.015625
2223,-44.921875
2224,-44.921875
2225,-41.015625
2226,-44.921875
2227,-44.921875
2228,-41.015625
2229,-44.921875
2230,-48.828125
2231,-44.921875
2232,-44.921875
2233,-42.968750
2234,-58.593750
2235,-44.921875
2236,-42.968750
2237,-42.968750
2238,-44.921875
2239,-41.015625
2240,-44.921875
2241,-41.015625
2242,-44.921875
2243,-44.921875
2244,-44.921875
2245,-41.015625
2246,-44.921875
2247,-44.921875
2248,-41.015625
2249,-44.921875
2250,-46.875000
2251,-41.015625
2252,-44.921875
2253,-44.921875
2254,-41.015625
2255,-44.921875
2256,-41.015625
2257,-39.062500
2258,-41.015625
2259,-44.921875
2260,-44.921875
2261,-44.921875
2262,-41.015625
2263,-41.015625
2264,-44.921875
2265,-44.921875
2266,-44.921875
2267,-44.921875
2268,-41.015625
2269,-46.875000
2270,-44.921875
2271,-44.921875
2272,-44.921875
2273,-41.015625
2274,-44.921875
2275,-46.875000
2276,-41.015625
2277,-44.921875
2278,-44.921875
2279,-42.968750
2280,-35.156250
2281,-41.015625
2282,-44.921875
2283,-44.921875
2284,-41.015625
2285,-42.968750
2286,-41.015625
2287,-46.875000
2288,-46.875000
2289,-41.015625
2290,-44.921875
2291,-41.015625
2292,-46.875000
2293,-44.921875
2294,-41.015625
2295,-44.921875
2296,-44.921875
2297,-41.015625
2298,-44.921875
2299,-44.921875
2300,-44.921875
2301,-44.921875
2302,-46.875000
2303,-44.921875
2304,-44.921875
2305,-44.921875
2306,-44.921875
2307,-41.015625
2308,-44.921875
2309,-44.921875
2310,-46.875000
2311,-46.875000
2312,-35.156250
2313,-44.921875
2314,-41.015625
2315,-46.875000
2316,-44.921875
2317,-44.921875
2318,-56.640625
2319,-44.921875
2320,-44.921875
2321,-42.968750
2322,-44.921875
2323,-41.015625
2324,-44.921875
2325,-44.921875
2326,-41.015625
2327,-48.828125
2328,-44.921875
2329,-44.921875
2330,-42.968750
2331,-44.921875
2332,-42.968750
2333,-41.015625
2334,-44.921875
2335,-41.015625
2336,-41.015625
2337,-44.921875
2338,-41.015625
2339,-44.921875
2340,-41.015625
2341,-41.015625
2342,-41.015625
2343,-41.015625
2344,-44.921875
2345,-41.015625
2346,-41.015625
2347,-44.921875
2348,-41.015625
2349,-41.015625
2350,-41.015625
2351,-42.968750
2352,-44.921875
2353,-41.015625
2354,-42.968750
2355,-41.015625
2356,-41.015625
2357,-44.921875
2358,-44.921875
2359,-39.062500
2360,-44.921875
2361,-42.968750
2362,-44.921875
2363,-41.015625
2364,-44.921875
2365,-46.875000
2366,-41.015625
2367,-41.015625
2368,-44.921875
2369,-42.968750
2370,-44.921875
2371,-44.921875
2372,-41.015625
2373,-44.921875
2374,-44.921875
2375,-44.921875
2376,-46.875000
2377,-44.921875
2378,-44.921875
2379,-41.015625
2380,-44.921875
2381,-44.921875
2382,-41.015625
2383,-44.921875
2384,-44.921875
2385,-41.015625
2386,-41.015625
2387,-44.921875
2388,-48.828125
2389,-44.921875
2390,-44.921875
2391,-44.921875
2392,-41.015625
2393,-44.921875
2394,-41.015625
2395,-41.015625
2396,-44.921875
2397,-42.968750
2398,-44.921875
2399,-41.015625
2400,-44.921875
2401,-41.015625
2402,-44.921875
2403,-44.921875
2404,-41.015625
2405,-44.921875
2406,-41.015625
2407,-41.015625
2408,-46.875000
2409,-41.015625
2410,-44.921875
2411,-41.015625
2412,-44.921875
2413,-44.921875
2414,-41.015625
2415,-44.921875
2416,-41.015625
2417,-44.921875
2418,-46.875000
2419,-41.015625
2420,-44.921875
2421,-42.968750
2422,-41.015625
2423,-44.921875
2424,-44.921875
2425,-42.968750
2426,-44.921875
2427,-42.968750
2428,-41.015625
2429,-41.015625
2430,-44.921875
2431,-41.015625
2432,-41.015625
2433,-42.968750
2434,-44.921875
2435,-42.968750
2436,-42.968750
2437,-44.921875
2438,-42.968750
2439,-42.968750
2440,-44.921875
2441,-44.921875
2442,-44.921875
2443,-44.921875
2444,-44.921875
2445,-44.921875
2446,-42.968750
2447,-44.921875
2448,-44.921875
2449,-35.156250
2450,-44.921875
2451,-46.875000
2452,-48.828125
2453,-46.875000
2454,-48.828125
2455,-48.828125
2456,-46.875000
2457,-50.781250
2458,-50.781250
2459,-48.828125
2460,-56.640625
2461,-48.828125
2462,-54.687500
2463,-48.828125
2464,-50.781250
2465,-54.687500
2466,-48.828125
2467,-56.640625
2468,-50.781250
2469,-56.640625
2470,-56.640625
2471,-54.687500
2472,-56.640625
2473,-56.640625
2474,-54.687500
2475,-56.640625
2476,-56.640625
2477,-56.640625
2478,-56.640625
2479,-56.640625
2480,-56.640625
2481,-56.640625
2482,-58.593750
2483,-56.640625
2484,-58.593750
2485,-56.640625
2486,-58.593750
2487,-60.546875
2488,-60.546875
2489,-60.546875
2490,-58.593750
2491,-60.546875
2492,-56.640625
2493,-60.546875
2494,-60.546875
2495,-60.546875
2496,-60.546875
2497,-56.640625
2498,-60.546875
2499,-60.546875
2500,-56.640625
2501,-62.500000
2502,-60.546875
2503,-60.546875
2504,-58.593750
2505,-60.546875
2506,-60.546875
2507,-58.593750
2508,-60.546875
2509,-60.546875
2510,-60.546875
2511,-62.500000
2512,-60.546875
2513,-56.640625
2514,-62.500000
2515,-60.546875
2516,-62.500000
2517,-60.546875
2518,-60.546875
2519,-62.500000
2520,-60.546875
2521,-60.546875
2522,-60.546875
2523,-62.500000
2524,-62.500000
2525,-60.546875
2526,-60.546875
2527,-60.546875
2528,-60.546875
2529,-60.546875
2530,-62.500000
2531,-60.546875
2532,-60.546875
2533,-58.593750
2534,-60.546875
2535,-60.546875
2536,-60.546875
2537,-62.500000
2538,-60.546875
2539,-60.546875
2540,-62.500000
2541,-62.500000
2542,-60.546875
2543,-60.546875
2544,-60.546875
2545,-60.546875
2546,-60.546875
2547,-60.546875
2548,-60.546875
2549,-60.546875
2550,-64.453125
2551,-60.546875
2552,-60.546875
2553,-60.546875
2554,-60.546875
2555,-60.546875
2556,-60.546875
2557,-60.546875
2558,-60.546875
2559,-60.546875
2560,-64.453125
2561,-60.546875
2562,-60.546875
2563,-62.500000
2564,-62.500000
2565,-62.500000
2566,-60.546875
2567,-62.500000
2568,-56.640625
2569,-60.546875
2570,-64.453125
2571,-62.500000
2572,-60.546875
2573,-62.500000
2574,-62.500000
2575,-62.500000
2576,-62.500000
2577,-60.546875
2578,-62.500000
2579,-60.546875
2580,-60.546875
2581,-64.453125
2582,-58.593750
2583,-60.546875
2584,-60.546875
2585,-60.546875
2586,-60.546875
2587,-60.546875
2588,-60.546875
2589,-62.500000
2590,-60.546875
2591,-60.546875
2592,-60.546875
2593,-60.546875
2594,-60.546875
2595,-60.546875
2596,-62.500000
2597,-60.546875
2598,-60.546875
2599,-62.500000
2600,-64.453125
2601,-60.546875
2602,-60.546875
2603,-56.640625
2604,-60.546875
2605,-60.546875
2606,-62.500000
2607,-60.546875
2608,-60.546875
2609,-58.593750
2610,-60.546875
2611,-60.546875
2612,-60.546875
2613,-56.640625
2614,-60.546875
2615,-60.546875
2616,-58.593750
2617,-62.500000
2618,-60.546875
2619,-64.453125
2620,-60.546875
2621,-60.546875
2622,-60.546875
2623,-58.593750
2624,-60.546875
2625,-60.546875
2626,-60.546875
2627,-64.453125
2628,-60.546875
2629,-62.500000
2630,-62.500000
2631,-60.546875
2632,-60.546875
2633,-60.546875
2634,-60.546875
2635,-62.500000
2636,-58.593750
2637,-60.546875
2638,-60.546875
2639,-60.546875
2640,-60.546875
2641,-56.640625
2642,-62.500000
2643,-60.546875
2644,-66.406250
2645,-60.546875
2646,-60.546875
2647,-60.546875
2648,-60.546875
2649,-62.500000
2650,-60.546875
2651,-60.546875
2652,-60.546875
2653,-60.546875
2654,-60.546875
2655,-64.453125
2656,-60.546875
2657,-64.453125
2658,-56.640625
2659,-60.546875
2660,-60.546875
2661,-60.546875
2662,-62.500000
2663,-58.593750
2664,-62.500000
2665,-60.546875
2666,-60.546875
2667,-62.500000
2668,-60.546875
2669,-60.546875
2670,-60.546875
2671,-56.640625
2672,-60.546875
2673,-56.640625
2674,-58.593750
2675,-58.593750
2676,-56.640625
2677,-58.593750
2678,-60.546875
2679,-58.593750
2680,-60.546875
2681,-56.640625
2682,-56.640625
2683,-64.453125
2684,-56.640625
2685,-60.546875
2686,-58.593750
2687,-52.734375
2688,-56.640625
2689,-56.640625
2690,-56.640625
2691,-60.546875
2692,-60.546875
2693,-60.546875
2694,-56.640625
2695,-60.546875
2696,-60.546875
2697,-60.546875
2698,-60.546875
2699,-58.593750
2700,-62.500000
2701,-60.546875
2702,-56.640625
2703,-60.546875
2704,-60.546875
2705,-60.546875
2706,-62.500000
2707,-56.640625
2708,-60.546875
2709,-60.546875
2710,-56.640625
2711,-60.546875
2712,-56.640625
2713,-60.546875
2714,-56.640625
2715,-60.546875
2716,-62.500000
2717,-56.640625
2718,-60.546875
2719,-56.640625
2720,-60.546875
2721,-58.593750
2722,-60.546875
2723,-60.546875
2724,-60.546875
2725,-60.546875
2726,-60.546875
2727,-58.593750
2728,-56.640625
2729,-60.546875
2730,-60.546875
2731,-60.546875
2732,-60.546875
2733,-56.640625
2734,-60.546875
2735,-56.640625
2736,-60.546875
2737,-60.546875
2738,-54.687500
2739,-60.546875
2740,-60.546875
2741,-60.546875
2742,-60.546875
2743,-56.640625
2744,-56.640625
2745,-56.640625
2746,-56.640625
2747,-56.640625
2748,-56.640625
2749,-60.546875
2750,-58.593750
2751,-56.640625
2752,-60.546875
2753,-56.640625
2754,-60.546875
2755,-60.546875
2756,-56.640625
2757,-60.546875
2758,-56.640625
2759,-60.546875
2760,-56.640625
2761,-56.640625
2762,-56.640625
2763,-56.640625
2764,-64.453125
2765,-56.640625
2766,-56.640625
2767,-56.640625
2768,-54.687500
2769,-56.640625
2770,-56.640625
2771,-52.734375
2772,-54.687500
2773,-56.640625
2774,-56.640625
2775,-56.640625
2776,-52.734375
2777,-56.640625
2778,-72.265625
2779,-54.687500
2780,-56.640625
2781,-50.781250
2782,-54.687500
2783,-52.734375
2784,-50.781250
2785,-56.640625
2786,-52.734375
2787,-44.921875
2788,-56.640625
2789,-56.640625
2790,-54.687500
2791,-54.687500
2792,-50.781250
2793,-54.687500
2794,-52.734375
2795,-50.781250
2796,-52.734375
2797,-48.828125
2798,-54.687500
2799,-50.781250
2800,-54.687500
2801,-48.828125
2802,-50.781250
2803,-56.640625
2804,-54.687500
2805,-54.687500
2806,-52.734375
2807,-52.734375
2808,-54.687500
2809,-54.687500
2810,-39.062500
2811,-52.734375
2812,-52.734375
2813,-54.687500
2814,-48.828125
2815,-48.828125
2816,-54.687500
2817,-50.781250
2818,-54.687500
2819,-52.734375
2820,-54.687500
2821,-52.734375
2822,-50.781250
2823,-54.687500
2824,-56.640625
2825,-50.781250
2826,-48.828125
2827,-48.828125
2828,-50.781250
2829,-52.734375
2830,-48.828125
2831,-48.828125
2832,-48.828125
2833,-48.828125
2834,-48.828125
2835,-48.828125
2836,-50.781250
2837,-48.828125
2838,-48.828125
2839,-50.781250
2840,-60.546875
2841,-48.828125
2842,-39.062500
2843,-48.828125
2844,-48.828125
2845,-46.875000
2846,-48.828125
2847,-48.828125
2848,-44.921875
2849,-46.875000
2850,-44.921875
2851,-46.875000
2852,-46.875000
2853,-46.875000
2854,-46.875000
2855,-42.968750
2856,-46.875000
2857,-46.875000
2858,-41.015625
2859,-44.921875
2860,-41.015625
2861,-44.921875
2862,-44.921875
2863,-44.921875
2864,-44.921875
2865,-42.968750
2866,-44.921875
2867,-44.921875
2868,-41.015625
2869,-44.921875
2870,-42.968750
2871,-41.015625
2872,-42.968750
2873,-41.015625
2874,-41.015625
2875,-42.968750
2876,-42.968750
2877,-44.921875
2878,-44.921875
2879,-41.015625
2880,-44.921875
2881,-41.015625
2882,-44.921875
2883,-41.015625
2884,-41.015625
2885,-44.921875
2886,-41.015625
2887,-44.921875
2888,-42.968750
2889,-41.015625
2890,-44.921875
2891,-42.968750
2892,-42.968750
2893,-44.921875
2894,-41.015625
2895,-42.968750
2896,-42.968750
2897,-44.921875
2898,-44.921875
2899,-44.921875
2900,-44.921875
2901,-41.015625
2902,-46.875000
2903,-41.015625
2904,-44.921875
2905,-44.921875
2906,-41.015625
2907,-46.875000
2908,-41.015625
2909,-56.640625
2910,-44.921875
2911,-41.015625
2912,-44.921875
2913,-41.015625
2914,-44.921875
2915,-37.109375
2916,-41.015625
2917,-44.921875
2918,-41.015625
2919,-41.015625
2920,-44.921875
2921,-41.015625
2922,-41.015625
2923,-44.921875
2924,-41.015625
2925,-44.921875
2926,-44.921875
2927,-41.015625
2928,-44.921875
2929,-46.875000
2930,-44.921875
2931,-44.921875
2932,-41.015625
2933,-41.015625
2934,-46.875000
2935,-44.921875
2936,-44.921875
2937,-42.968750
2938,-41.015625
2939,-44.921875
2940,-41.015625
2941,-42.968750
2942,-42.968750
2943,-41.015625
2944,-42.968750
2945,-44.921875
2946,-42.968750
2947,-41.015625
2948,-42.968750
2949,-44.921875
2950,-44.921875
2951,-44.921875
2952,-44.921875
2953,-44.921875
2954,-44.921875
2955,-44.921875
2956,-41.015625
2957,-35.156250
2958,-41.015625
2959,-44.921875
2960,-44.921875
2961,-44.921875
2962,-41.015625
2963,-44.921875
2964,-44.921875
2965,-44.921875
2966,-41.015625
2967,-44.921875
2968,-41.015625
2969,-42.968750
2970,-44.921875
2971,-44.921875
2972,-44.921875
2973,-41.015625
2974,-41.015625
2975,-44.921875
2976,-41.015625
2977,-44.921875
2978,-41.015625
2979,-44.921875
2980,-41.015625
2981,-42.968750
2982,-41.015625
2983,-41.015625
2984,-41.015625
2985,-44.921875
2986,-41.015625
2987,-42.968750
2988,-44.921875
2989,-42.968750
2990,-44.921875
2991,-39.062500
2992,-41.015625
2993,-44.921875
2994,-41.015625
2995,-44.921875
2996,-41.015625
2997,-41.015625
2998,-44.921875
2999,-44.921875
3000,-41.015625
3001,-41.015625
3002,-41.015625
3003,-42.968750
3004,-44.921875
3005,-41.015625
3006,-44.921875
3007,-44.921875
3008,-44.921875
3009,-41.015625
3010,-44.921875
3011,-44.921875
3012,-41.015625
3013,-42.968750
3014,-44.921875
3015,-42.968750
3016,-44.921875
3017,-44.921875
3018,-44.921875
3019,-41.015625
3020,-41.015625
3021,-44.921875
3022,-41.015625
3023,-42.968750
3024,-44.921875
3025,-41.015625
3026,-42.968750
3027,-44.921875
3028,-41.015625
3029,-44.921875
3030,-46.875000
3031,-42.968750
3032,-42.968750
3033,-41.015625
3034,-41.015625
3035,-42.968750
3036,-41.015625
3037,-44.921875
3038,-41.015625
3039,-42.968750
3040,-44.921875
3041,-41.015625
3042,-39.062500
3043,-41.015625
3044,-41.015625
3045,-42.968750
3046,-41.015625
3047,-44.921875
3048,-44.921875
3049,-41.015625
3050,-46.875000
3051,-41.015625
3052,-56.640625
3053,-41.015625
3054,-41.015625
3055,-41.015625
3056,-58.593750
3057,-41.015625
3058,-41.015625
3059,-42.968750
3060,-44.921875
3061,-44.921875
3062,-39.062500
3063,-42.968750
3064,-41.015625
3065,-44.921875
3066,-44.921875
3067,-41.015625
3068,-44.921875
3069,-41.015625
3070,-44.921875
3071,-41.015625
3072,-41.015625
3073,-44.921875
3074,-41.015625
3075,-44.921875
3076,-42.968750
3077,-44.921875
3078,-44.921875
3079,-41.015625
3080,-41.015625
3081,-41.015625
3082,-41.015625
3083,-41.015625
3084,-44.921875
3085,-41.015625
3086,-44.921875
3087,-41.015625
3088,-44.921875
3089,-44.921875
3090,-41.015625
3091,-41.015625
3092,-39.062500
3093,-41.015625
3094,-41.015625
3095,-44.921875
3096,-44.921875
3097,-41.015625
3098,-44.921875
3099,-46.875000
3100,-41.015625
3101,-44.921875
3102,-44.921875
3103,-44.921875
3104,-44.921875
3105,-41.015625
3106,-44.921875
3107,-41.015625
3108,-41.015625
3109,-44.921875
3110,-42.968750
3111,-44.921875
3112,-44.921875
3113,-41.015625
3114,-44.921875
3115,-44.921875
3116,-44.921875
3117,-44.921875
3118,-44.921875
3119,-44.921875
3120,-44.921875
3121,-41.015625
3122,-44.921875
3123,-44.921875
3124,-44.921875
3125,-44.921875
3126,-41.015625
3127,-44.921875
3128,-44.921875
3129,-44.921875
3130,-44.921875
3131,-41.015625
3132,-44.921875
3133,-44.921875
3134,-44.921875
3135,-41.015625
3136,-41.015625
3137,-44.921875
3138,-44.921875
3139,-41.015625
3140,-44.921875
3141,-41.015625
3142,-42.968750
3143,-44.921875
3144,-41.015625
3145,-44.921875
3146,-44.921875
3147,-41.015625
3148,-44.921875
3149,-44.921875
3150,-44.921875
3151,-42.968750
3152,-46.875000
3153,-41.015625
3154,-44.921875
3155,-44.921875
3156,-41.015625
3157,-48.828125
3158,-41.015625
3159,-44.921875
3160,-41.015625
3161,-44.921875
3162,-44.921875
3163,-42.968750
3164,-48.828125
3165,-44.921875
3166,-41.015625
3167,-48.828125
3168,-42.968750
3169,-44.921875
3170,-44.921875
3171,-41.015625
3172,-46.875000
3173,-44.921875
3174,-41.015625
3175,-44.921875
3176,-44.921875
3177,-44.921875
3178,-44.921875
3179,-41.015625
3180,-44.921875
3181,-44.921875
3182,-41.015625
3183,-42.968750
3184,-44.921875
3185,-41.015625
3186,-44.921875
3187,-42.968750
3188,-44.921875
3189,-42.968750
3190,-41.015625
3191,-44.921875
3192,-41.015625
3193,-44.921875
3194,-42.968750
3195,-41.015625
3196,-44.921875
3197,-42.968750
3198,-44.921875
3199,-44.921875
3200,-41.015625
3201,-46.875000
3202,-41.015625
3203,-31.250000
3204,-41.015625
3205,-41.015625
3206,-44.921875
3207,-41.015625
3208,-41.015625
3209,-42.968750
3210,-41.015625
3211,-44.921875
3212,-44.921875
3213,-44.921875
3214,-44.921875
3215,-41.015625
3216,-44.921875
3217,-41.015625
3218,-48.828125
3219,-44.921875
3220,-42.968750
3221,-46.875000
3222,-44.921875
3223,-44.921875
3224,-41.015625
3225,-41.015625
3226,-44.921875
3227,-42.968750
3228,-44.921875
3229,-42.968750
3230,-44.921875
3231,-41.015625
3232,-39.062500
3233,-41.015625
3234,-44.921875
3235,-44.921875
3236,-41.015625
3237,-44.921875
3238,-41.015625
3239,-44.921875
3240,-44.921875
3241,-41.015625
3242,-44.921875
3243,-41.015625
3244,-37.109375
3245,-41.015625
3246,-41.015625
3247,-42.968750
3248,-41.015625
3249,-41.015625
3250,-42.968750
3251,-42.968750
3252,-44.921875
3253,-48.828125
3254,-41.015625
3255,-41.015625
3256,-42.968750
3257,-44.921875
3258,-41.015625
3259,-41.015625
3260,-44.921875
3261,-41.015625
3262,-44.921875
3263,-42.968750
3264,-42.968750
3265,-41.015625
3266,-39.062500
3267,-44.921875
3268,-41.015625
3269,-44.921875
3270,-44.921875
3271,-42.968750
3272,-44.921875
3273,-44.921875
3274,-44.921875
3275,-44.921875
3276,-41.015625
3277,-42.968750
3278,-41.015625
3279,-44.921875
3280,-44.921875
3281,-41.015625
3282,-41.015625
3283,-41.015625
3284,-41.015625
3285,-31.250000
3286,-41.015625
3287,-41.015625
3288,-41.015625
3289,-44.921875
3290,-42.968750
3291,-41.015625
3292,-42.968750
3293,-41.015625
3294,-42.968750
3295,-60.546875
3296,-39.062500
3297,-44.921875
3298,-41.015625
3299,-44.921875
3300,-41.015625
3301,-41.015625
3302,-42.968750
3303,-41.015625
3304,-41.015625
3305,-44.921875
3306,-41.015625
3307,-42.968750
3308,-44.921875
3309,-41.015625
3310,-44.921875
3311,-41.015625
3312,-41.015625
3313,-44.921875
3314,-41.015625
3315,-41.015625
3316,-41.015625
3317,-44.921875
3318,-44.921875
3319,-41.015625
3320,-42.968750
3321,-41.015625
3322,-41.015625
3323,-44.921875
3324,-42.968750
3325,-44.921875
3326,-44.921875
3327,-41.015625
3328,-42.968750
3329,-39.062500
3330,-41.015625
3331,-41.015625
3332,-41.015625
3333,-50.781250
3334,-42.968750
3335,-41.015625
3336,-41.015625
3337,-39.062500
3338,-44.921875
3339,-44.921875
3340,-41.015625
3341,-44.921875
3342,-42.968750
3343,-60.546875
3344,-41.015625
3345,-44.921875
3346,-44.921875
3347,-41.015625
3348,-46.875000
3349,-41.015625
3350,-44.921875
3351,-44.921875
3352,-44.921875
3353,-44.921875
3354,-42.968750
3355,-44.921875
3356,-46.875000
3357,-44.921875
3358,-46.875000
3359,-46.875000
3360,-46.875000
3361,-46.875000
3362,-46.875000
3363,-48.828125
3364,-48.828125
3365,-48.828125
3366,-48.828125
3367,-50.781250
3368,-50.781250
3369,-52.734375
3370,-54.687500
3371,-50.781250
3372,-50.781250
3373,-54.687500
3374,-54.687500
3375,-50.781250
3376,-54.687500
3377,-52.734375
3378,-52.734375
3379,-54.687500
3380,-52.734375
3381,-56.640625
3382,-54.687500
3383,-56.640625
3384,-56.640625
3385,-56.640625
3386,-54.687500
3387,-56.640625
3388,-56.640625
3389,-56.640625
3390,-56.640625
3391,-56.640625
3392,-56.640625
3393,-56.640625
3394,-56.640625
3395,-56.640625
3396,-56.640625
3397,-60.546875
3398,-56.640625
3399,-56.640625
3400,-56.640625
3401,-56.640625
3402,-56.640625
3403,-56.640625
3404,-56.640625
3405,-56.640625
3406,-60.546875
3407,-54.687500
3408,-56.640625
3409,-56.640625
3410,-54.687500
3411,-56.640625
3412,-56.640625
3413,-56.640625
3414,-56.640625
3415,-56.640625
3416,-60.546875
3417,-54.687500
3418,-56.640625
3419,-56.640625
3420,-56.640625
3421,-56.640625
3422,-56.640625
3423,-56.640625
3424,-56.640625
3425,-56.640625
3426,-54.687500
3427,-60.546875
3428,-54.687500
3429,-56.640625
3430,-56.640625
3431,-48.828125
3432,-56.640625
3433,-56.640625
3434,-56.640625
3435,-56.640625
3436,-56.640625
3437,-56.640625
3438,-56.640625
3439,-56.640625
3440,-56.640625
3441,-54.687500
3442,-56.640625
3443,-58.593750
3444,-54.687500
3445,-56.640625
3446,-56.640625
3447,-56.640625
3448,-56.640625
3449,-56.640625
3450,-56.640625
3451,-56.640625
3452,-60.546875
3453,-60.546875
3454,-56.640625
3455,-60.546875
3456,-60.546875
3457,-56.640625
3458,-56.640625
3459,-60.546875
3460,-60.546875
3461,-56.640625
3462,-58.593750
3463,-64.453125
3464,-60.546875
3465,-60.546875
3466,-56.640625
3467,-58.593750
3468,-60.546875
3469,-56.640625
3470,-60.546875
3471,-60.546875
3472,-60.546875
3473,-60.546875
3474,-60.546875
3475,-60.546875
3476,-58.593750
3477,-60.546875
3478,-60.546875
3479,-60.546875
3480,-60.546875
3481,-60.546875
3482,-62.500000
3483,-60.546875
3484,-60.546875
3485,-60.546875
3486,-64.453125
3487,-60.546875
3488,-60.546875
3489,-60.546875
3490,-60.546875
3491,-62.500000
3492,-58.593750
3493,-60.546875
3494,-60.546875
3495,-72.265625
3496,-62.500000
3497,-56.640625
3498,-62.500000
3499,-62.500000
3500,-60.546875
3501,-60.546875
3502,-60.546875
3503,-62.500000
3504,-60.546875
3505,-60.546875
3506,-60.546875
3507,-60.546875
3508,-62.500000
3509,-60.546875
3510,-62.500000
3511,-60.546875
3512,-60.546875
3513,-60.546875
3514,-60.546875
3515,-60.546875
3516,-60.546875
3517,-60.546875
3518,-62.500000
3519,-60.546875
3520,-60.546875
3521,-62.500000
3522,-60.546875
3523,-64.453125
3524,-56.640625
3525,-60.546875
3526,-60.546875
3527,-62.500000
3528,-62.500000
3529,-60.546875
3530,-56.640625
3531,-60.546875
3532,-60.546875
3533,-62.500000
3534,-60.546875
3535,-58.593750
3536,-62.500000
3537,-58.593750
3538,-60.546875
3539,-60.546875
3540,-60.546875
3541,-60.546875
3542,-60.546875
3543,-56.640625
3544,-60.546875
3545,-56.640625
3546,-60.546875
3547,-60.546875
3548,-56.640625
3549,-60.546875
3550,-56.640625
3551,-60.546875
3552,-60.546875
3553,-58.593750
3554,-60.546875
3555,-56.640625
3556,-60.546875
3557,-60.546875
3558,-58.593750
3559,-60.546875
3560,-60.546875
3561,-60.546875
3562,-56.640625
3563,-56.640625
3564,-60.546875
3565,-52.734375
3566,-56.640625
3567,-60.546875
3568,-56.640625
3569,-62.500000
3570,-56.640625
3571,-60.546875
3572,-60.546875
3573,-58.593750
3574,-58.593750
3575,-58.593750
3576,-60.546875
3577,-58.593750
3578,-60.546875
3579,-56.640625
3580,-60.546875
3581,-60.546875
3582,-62.500000
3583,-62.500000
3584,-56.640625
3585,-60.546875
3586,-58.593750
3587,-58.593750
3588,-60.546875
3589,-60.546875
3590,-60.546875
3591,-60.546875
3592,-60.546875
3593,-58.593750
3594,-56.640625
3595,-62.500000
3596,-56.640625
3597,-60.546875
3598,-60.546875
3599,-58.593750
3600,-60.546875
3601,-56.640625
3602,-60.546875
3603,-60.546875
3604,-50.781250
3605,-60.546875
3606,-60.546875
3607,-60.546875
3608,-58.593750
3609,-58.593750
3610,-62.500000
3611,-56.640625
3612,-60.546875
3613,-60.546875
3614,-54.687500
3615,-60.546875
3616,-58.593750
3617,-58.593750
3618,-60.546875
3619,-56.640625
3620,-60.546875
3621,-60.546875
3622,-56.640625
3623,-72.265625
3624,-56.640625
3625,-60.546875
3626,-56.640625
3627,-58.593750
3628,-56.640625
3629,-56.640625
3630,-60.546875
3631,-60.546875
3632,-56.640625
3633,-60.546875
3634,-56.640625
3635,-56.640625
3636,-56.640625
3637,-56.640625
3638,-58.593750
3639,-56.640625
3640,-56.640625
3641,-56.640625
3642,-56.640625
3643,-60.546875
3644,-60.546875
3645,-56.640625
3646,-60.546875
3647,-56.640625
3648,-58.593750
3649,-56.640625
3650,-60.546875
3651,-56.640625
3652,-56.640625
3653,-60.546875
3654,-56.640625
3655,-66.406250
3656,-56.640625
3657,-56.640625
3658,-60.546875
3659,-48.828125
3660,-60.546875
3661,-56.640625
3662,-56.640625
3663,-60.546875
3664,-54.687500
3665,-58.593750
3666,-56.640625
3667,-56.640625
3668,-58.593750
3669,-54.687500
3670,-60.546875
3671,-56.640625
3672,-56.640625
3673,-58.593750
3674,-56.640625
3675,-56.640625
3676,-56.640625
3677,-58.593750
3678,-56.640625
3679,-58.593750
3680,-56.640625
3681,-56.640625
3682,-56.640625
3683,-56.640625
3684,-58.593750
3685,-56.640625
3686,-56.640625
3687,-54.687500
3688,-56.640625
3689,-56.640625
3690,-56.640625
3691,-56.640625
3692,-56.640625
3693,-58.593750
3694,-56.640625
3695,-56.640625
3696,-54.687500
3697,-60.546875
3698,-54.687500
3699,-54.687500
3700,-56.640625
3701,-56.640625
3702,-56.640625
3703,-56.640625
3704,-60.546875
3705,-56.640625
3706,-54.687500
3707,-56.640625
3708,-56.640625
3709,-56.640625
3710,-56.640625
3711,-54.687500
3712,-54.687500
3713,-54.687500
3714,-52.734375
3715,-52.734375
3716,-54.687500
3717,-56.640625
3718,-54.687500
3719,-56.640625
3720,-56.640625
3721,-52.734375
3722,-54.687500
3723,-52.734375
3724,-50.781250
3725,-52.734375
3726,-52.734375
3727,-48.828125
3728,-50.781250
3729,-46.875000
3730,-48.828125
3731,-48.828125
3732,-48.828125
3733,-48.828125
3734,-48.828125
3735,-48.828125
3736,-50.781250
3737,-44.921875
3738,-48.828125
3739,-46.875000
3740,-44.921875
3741,-46.875000
3742,-46.875000
3743,-48.828125
3744,-44.921875
3745,-44.921875
3746,-44.921875
3747,-44.921875
3748,-44.921875
3749,-44.921875
3750,-42.968750
3751,-48.828125
3752,-44.921875
3753,-44.921875
3754,-44.921875
3755,-41.015625
3756,-46.875000
3757,-37.109375
3758,-46.875000
3759,-42.968750
3760,-41.015625
3761,-44.921875
3762,-41.015625
3763,-44.921875
3764,-44.921875
3765,-39.062500
3766,-44.921875
3767,-44.921875
3768,-44.921875
3769,-44.921875
3770,-44.921875
3771,-44.921875
3772,-44.921875
3773,-42.968750
3774,-44.921875
3775,-41.015625
3776,-44.921875
3777,-41.015625
3778,-41.015625
3779,-44.921875
3780,-41.015625
3781,-42.968750
3782,-41.015625
3783,-44.921875
3784,-44.921875
3785,-41.015625
3786,-44.921875
3787,-41.015625
3788,-44.921875
3789,-44.921875
3790,-41.015625
3791,-44.921875
3792,-41.015625
3793,-39.062500
3794,-42.968750
3795,-42.968750
3796,-41.015625
3797,-41.015625
3798,-41.015625
3799,-41.015625
3800,-42.968750
3801,-41.015625
3802,-42.968750
3803,-41.015625
3804,-44.921875
3805,-41.015625
3806,-42.968750
3807,-44.921875
3808,-41.015625
3809,-48.828125
3810,-41.015625
3811,-42.968750
3812,-42.968750
3813,-44.921875
3814,-41.015625
3815,-44.921875
3816,-44.921875
3817,-44.921875
3818,-42.968750
3819,-44.921875
3820,-41.015625
3821,-41.015625
3822,-42.968750
3823,-41.015625
3824,-44.921875
3825,-42.968750
3826,-41.015625
3827,-44.921875
3828,-41.015625
3829,-44.921875
3830,-42.968750
3831,-41.015625
3832,-41.015625
3833,-41.015625
3834,-44.921875
3835,-42.968750
3836,-41.015625
3837,-44.921875
3838,-44.921875
3839,-42.968750
3840,-42.968750
3841,-41.015625
3842,-41.015625
3843,-42.968750
3844,-41.015625
3845,-41.015625
3846,-41.015625
3847,-41.015625
3848,-42.968750
3849,-41.015625
3850,-44.921875
3851,-41.015625
3852,-41.015625
3853,-41.015625
3854,-44.921875
3855,-41.015625
3856,-39.062500
3857,-44.921875
3858,-41.015625
3859,-44.921875
3860,-41.015625
3861,-41.015625
3862,-44.921875
3863,-44.921875
3864,-44.921875
3865,-41.015625
3866,-41.015625
3867,-42.968750
3868,-41.015625
3869,-42.968750
3870,-44.921875
3871,-44.921875
3872,-42.968750
3873,-44.921875
3874,-41.015625
3875,-41.015625
3876,-41.015625
3877,-41.015625
3878,-44.921875
3879,-39.062500
3880,-44.921875
3881,-41.015625
3882,-41.015625
3883,-44.921875
3884,-41.015625
3885,-44.921875
3886,-41.015625
3887,-41.015625
3888,-42.968750
3889,-41.015625
3890,-44.921875
3891,-42.968750
3892,-44.921875
3893,-44.921875
3894,-41.015625
3895,-44.921875
3896,-23.437500
3897,-50.781250
3898,-42.968750
3899,-41.015625
3900,-41.015625
3901,-44.921875
3902,-46.875000
3903,-42.968750
3904,-44.921875
3905,-41.015625
3906,-44.921875
3907,-44.921875
3908,-41.015625
3909,-44.921875
3910,-44.921875
3911,-46.875000
3912,-44.921875
3913,-41.015625
3914,-41.015625
3915,-44.921875
3916,-41.015625
3917,-44.921875
3918,-41.015625
3919,-44.921875
3920,-41.015625
3921,-41.015625
3922,-46.875000
3923,-41.015625
3924,-41.015625
3925,-44.921875
3926,-44.921875
3927,-42.968750
3928,-44.921875
3929,-41.015625
3930,-44.921875
3931,-44.921875
3932,-41.015625
3933,-42.968750
3934,-44.921875
3935,-44.921875
3936,-46.875000
3937,-41.015625
3938,-46.875000
3939,-44.921875
3940,-42.968750
3941,-44.921875
3942,-41.015625
3943,-41.015625
3944,-41.015625
3945,-46.875000
3946,-44.921875
3947,-41.015625
3948,-44.921875
3949,-41.015625
3950,-44.921875
3951,-44.921875
3952,-44.921875
3953,-46.875000
3954,-41.015625
3955,-42.968750
3956,-41.015625
3957,-41.015625
3958,-44.921875
3959,-42.968750
3960,-44.921875
3961,-52.734375
3962,-41.015625
3963,-44.921875
3964,-41.015625
3965,-42.968750
3966,-46.875000
3967,-41.015625
3968,-44.921875
3969,-41.015625
3970,-44.921875
3971,-44.921875
3972,-41.015625
3973,-44.921875
3974,-41.015625
3975,-25.390625
3976,-41.015625
3977,-44.921875
3978,-44.921875
3979,-44.921875
3980,-44.921875
3981,-44.921875
3982,-44.921875
3983,-44.921875
3984,-41.015625
3985,-41.015625
3986,-44.921875
3987,-41.015625
3988,-41.015625
3989,-44.921875
3990,-44.921875
3991,-44.921875
3992,-41.015625
3993,-44.921875
3994,-41.015625
3995,-41.015625
3996,-44.921875
3997,-41.015625
3998,-42.968750
3999,-41.015625
4000,-42.968750
4001,-44.921875
4002,-44.921875
4003,-44.921875
4004,-44.921875
4005,-41.015625
4006,-44.921875
4007,-44.921875
4008,-44.921875
4009,-44.921875
4010,-41.015625
4011,-44.921875
4012,-44.921875
4013,-44.921875
4014,-44.921875
4015,-29.296875
4016,-44.921875
4017,-41.015625
4018,-44.921875
4019,-42.968750
4020,-41.015625
4021,-41.015625
4022,-41.015625
4023,-44.921875
4024,-44.921875
4025,-41.015625
4026,-41.015625
4027,-44.921875
4028,-41.015625
4029,-44.921875
4030,-42.968750
4031,-41.015625
4032,-44.921875
4033,-41.015625
4034,-44.921875
4035,-44.921875
4036,-41.015625
4037,-44.921875
4038,-41.015625
4039,-41.015625
4040,-41.015625
4041,-44.921875
4042,-44.921875
4043,-41.015625
4044,-44.921875
4045,-41.015625
4046,-44.921875
4047,-42.968750
4048,-44.921875
4049,-44.921875
4050,-44.921875
4051,-44.921875
4052,-44.921875
4053,-41.015625
4054,-44.921875
4055,-44.921875
4056,-44.921875
4057,-41.015625
4058,-41.015625
4059,-44.921875
4060,-44.921875
4061,-44.921875
4062,-44.921875
4063,-41.015625
4064,-44.921875
4065,-44.921875
4066,-33.203125
4067,-46.875000
4068,-41.015625
4069,-44.921875
4070,-44.921875
4071,-41.015625
4072,-44.921875
4073,-44.921875
4074,-41.015625
4075,-44.921875
4076,-41.015625
4077,-44.921875
4078,-44.921875
4079,-41.015625
4080,-44.921875
4081,-42.968750
4082,-44.921875
4083,-44.921875
4084,-41.015625
4085,-44.921875
4086,-41.015625
4087,-44.921875
4088,-42.968750
4089,-41.015625
4090,-44.921875
4091,-41.015625
4092,-44.921875
4093,-42.968750
4094,-44.921875
4095,-44.921875
4096,-44.921875
4097,-44.921875
4098,-41.015625
4099,-44.921875
4100,-44.921875
4101,-41.015625
4102,-42.968750
4103,-44.921875
4104,-42.968750
4105,-44.921875
4106,-41.015625
4107,-44.921875
4108,-44.921875
4109,-41.015625
4110,-44.921875
4111,-41.015625
4112,-44.921875
4113,-44.921875
4114,-41.015625
4115,-44.921875
4116,-44.921875
4117,-44.921875
4118,-44.921875
4119,-41.015625
4120,-44.921875
4121,-44.921875
4122,-44.921875
4123,-44.921875
4124,-42.968750
4125,-44.921875
4126,-42.968750
4127,-44.921875
4128,-44.921875
4129,-44.921875
4130,-41.015625
4131,-41.015625
4132,-42.968750
4133,-44.921875
4134,-41.015625
4135,-41.015625
4136,-44.921875
4137,-41.015625
4138,-44.921875
4139,-41.015625
4140,-41.015625
4141,-41.015625
4142,-41.015625
4143,-44.921875
4144,-41.015625
4145,-41.015625
4146,-44.921875
4147,-41.015625
4148,-41.015625
4149,-41.015625
4150,-42.968750
4151,-41.015625
4152,-56.640625
4153,-44.921875
4154,-41.015625
4155,-44.921875
4156,-42.968750
4157,-42.968750
4158,-41.015625
4159,-41.015625
4160,-44.921875
4161,-44.921875
4162,-41.015625
4163,-44.921875
4164,-41.015625
4165,-44.921875
4166,-41.015625
4167,-44.921875
4168,-41.015625
4169,-41.015625
4170,-44.921875
4171,-41.015625
4172,-41.015625
4173,-44.921875
4174,-41.015625
4175,-41.015625
4176,-42.968750
4177,-44.921875
4178,-42.968750
4179,-44.921875
4180,-41.015625
4181,-41.015625
4182,-41.015625
4183,-44.921875
4184,-41.015625
4185,-41.015625
4186,-44.921875
4187,-41.015625
4188,-41.015625
4189,-44.921875
4190,-41.015625
4191,-41.015625
4192,-42.968750
4193,-41.015625
4194,-41.015625
4195,-42.968750
4196,-41.015625
4197,-44.921875
4198,-41.015625
4199,-42.968750
4200,-42.968750
4201,-41.015625
4202,-44.921875
4203,-41.015625
4204,-44.921875
4205,-42.968750
4206,-41.015625
4207,-44.921875
4208,-41.015625
4209,-41.015625
4210,-44.921875
4211,-41.015625
4212,-44.921875
4213,-41.015625
4214,-41.015625
4215,-44.921875
4216,-41.015625
4217,-44.921875
4218,-41.015625
4219,-41.015625
4220,-44.921875
4221,-41.015625
4222,-41.015625
4223,-44.921875
4224,-41.015625
4225,-41.015625
4226,-35.156250
4227,-42.968750
4228,-41.015625
4229,-41.015625
4230,-41.015625
4231,-41.015625
4232,-41.015625
4233,-44.921875
4234,-39.062500
4235,-44.921875
4236,-41.015625
4237,-41.015625
4238,-42.968750
4239,-41.015625
4240,-41.015625
4241,-44.921875
4242,-41.015625
4243,-41.015625
4244,-41.015625
4245,-42.968750
4246,-44.921875
4247,-41.015625
4248,-44.921875
4249,-41.015625
4250,-41.015625
4251,-52.734375
4252,-41.015625
4253,-41.015625
4254,-44.921875
4255,-41.015625
4256,-44.921875
4257,-41.015625
4258,-33.203125
4259,-41.015625
4260,-41.015625
4261,-44.921875
4262,-41.015625
4263,-41.015625
4264,-41.015625
4265,-41.015625
4266,-41.015625
4267,-44.921875
4268,-41.015625
4269,-41.015625
4270,-41.015625
4271,-42.968750
4272,-44.921875
4273,-41.015625
4274,-44.921875
4275,-41.015625
4276,-41.015625
4277,-44.921875
4278,-41.015625
4279,-44.921875
4280,-41.015625
4281,-42.968750
4282,-42.968750
4283,-41.015625
4284,-41.015625
4285,-42.968750
4286,-39.062500
4287,-41.015625
4288,-44.921875
4289,-41.015625
4290,-44.921875
4291,-41.015625
4292,-44.921875
4293,-44.921875
4294,-44.921875
4295,-46.875000
4296,-48.828125
4297,-44.921875
4298,-50.781250
4299,-46.875000
4300,-48.828125
4301,-48.828125
4302,-48.828125
4303,-52.734375
4304,-48.828125
4305,-50.781250
4306,-52.734375
4307,-48.828125
4308,-52.734375
4309,-48.828125
4310,-54.687500
4311,-52.734375
4312,-52.734375
4313,-62.500000
4314,-52.734375
4315,-54.687500
4316,-54.687500
4317,-48.828125
4318,-56.640625
4319,-56.640625
4320,-54.687500
4321,-56.640625
4322,-54.687500
4323,-54.687500
4324,-54.687500
4325,-54.687500
4326,-56.640625
4327,-54.687500
4328,-56.640625
4329,-56.640625
4330,-56.640625
4331,-56.640625
4332,-52.734375
4333,-50.781250
4334,-56.640625
4335,-54.687500
4336,-56.640625
4337,-56.640625
4338,-52.734375
4339,-56.640625
4340,-56.640625
4341,-56.640625
4342,-56.640625
4343,-56.640625
4344,-56.640625
4345,-72.265625
4346,-56.640625
4347,-56.640625
4348,-56.640625
4349,-56.640625
4350,-58.593750
4351,-56.640625
4352,-60.546875
4353,-56.640625
4354,-56.640625
4355,-56.640625
4356,-56.640625
4357,-58.593750
4358,-56.640625
4359,-56.640625
4360,-60.546875
4361,-56.640625
4362,-60.546875
4363,-58.593750
4364,-60.546875
4365,-60.546875
4366,-56.640625
4367,-58.593750
4368,-50.781250
4369,-60.546875
4370,-56.640625
4371,-56.640625
4372,-56.640625
4373,-60.546875
4374,-56.640625
4375,-60.546875
4376,-60.546875
4377,-60.546875
4378,-60.546875
4379,-58.593750
4380,-60.546875
4381,-58.593750
4382,-60.546875
4383,-60.546875
4384,-60.546875
4385,-62.500000
4386,-60.546875
4387,-56.640625
4388,-60.546875
4389,-60.546875
4390,-60.546875
4391,-60.546875
4392,-60.546875
4393,-64.453125
4394,-60.546875
4395,-62.500000
4396,-60.546875
4397,-60.546875
4398,-64.453125
4399,-60.546875
4400,-66.406250
4401,-58.593750
4402,-64.453125
4403,-64.453125
4404,-60.546875
4405,-64.453125
4406,-60.546875
4407,-64.453125
4408,-66.406250
4409,-60.546875
4410,-66.406250
4411,-62.500000
4412,-64.453125
4413,-64.453125
4414,-60.546875
4415,-64.453125
4416,-64.453125
4417,-64.453125
4418,-64.453125
4419,-64.453125
4420,-64.453125
4421,-64.453125
4422,-62.500000
4423,-64.453125
4424,-60.546875
4425,-62.500000
4426,-64.453125
4427,-60.546875
4428,-62.500000
4429,-64.453125
4430,-60.546875
4431,-64.453125
4432,-60.546875
4433,-64.453125
4434,-64.453125
4435,-60.546875
4436,-64.453125
4437,-62.500000
4438,-60.546875
4439,-66.406250
4440,-60.546875
4441,-64.453125
4442,-64.453125
4443,-62.500000
4444,-64.453125
4445,-60.546875
4446,-62.500000
4447,-64.453125
4448,-62.500000
4449,-64.453125
4450,-60.546875
4451,-60.546875
4452,-60.546875
4453,-60.546875
4454,-62.500000
4455,-60.546875
4456,-60.546875
4457,-62.500000
4458,-60.546875
4459,-60.546875
4460,-54.687500
4461,-60.546875
4462,-62.500000
4463,-60.546875
4464,-62.500000
4465,-62.500000
4466,-60.546875
4467,-62.500000
4468,-56.640625
4469,-62.500000
4470,-56.640625
4471,-60.546875
4472,-60.546875
4473,-60.546875
4474,-60.546875
4475,-60.546875
4476,-60.546875
4477,-60.546875
4478,-60.546875
4479,-60.546875
4480,-62.500000
4481,-60.546875
4482,-60.546875
4483,-60.546875
4484,-60.546875
4485,-60.546875
4486,-60.546875
4487,-62.500000
4488,-60.546875
4489,-56.640625
4490,-62.500000
4491,-60.546875
4492,-58.593750
4493,-60.546875
4494,-60.546875
4495,-60.546875
4496,-64.453125
4497,-60.546875
4498,-58.593750
4499,-60.546875
4500,-62.500000
4501,-56.640625
4502,-60.546875
4503,-62.500000
4504,-60.546875
4505,-60.546875
4506,-60.546875
4507,-60.546875
4508,-60.546875
4509,-60.546875
4510,-60.546875
4511,-60.546875
4512,-58.593750
4513,-60.546875
4514,-60.546875
4515,-62.500000
4516,-58.593750
4517,-60.546875
4518,-60.546875
4519,-62.500000
4520,-60.546875
4521,-58.593750
4522,-60.546875
4523,-60.546875
4524,-60.546875
4525,-60.546875
4526,-60.546875
4527,-56.640625
4528,-56.640625
4529,-60.546875
4530,-60.546875
4531,-60.546875
4532,-56.640625
4533,-60.546875
4534,-56.640625
4535,-58.593750
4536,-56.640625
4537,-56.640625
4538,-60.546875
4539,-56.640625
4540,-56.640625
4541,-60.546875
4542,-56.640625
4543,-60.546875
4544,-56.640625
4545,-60.546875
4546,-58.593750
4547,-58.593750
4548,-60.546875
4549,-56.640625
4550,-60.546875
4551,-56.640625
4552,-56.640625
4553,-60.546875
4554,-56.640625
4555,-56.640625
4556,-56.640625
4557,-56.640625
4558,-56.640625
4559,-56.640625
4560,-48.828125
4561,-56.640625
4562,-56.640625
4563,-54.687500
4564,-52.734375
4565,-54.687500
4566,-52.734375
4567,-52.734375
4568,-52.734375
4569,-48.828125
4570,-50.781250
4571,-48.828125
4572,-46.875000
4573,-48.828125
4574,-48.828125
4575,-48.828125
4576,-48.828125
4577,-46.875000
4578,-48.828125
4579,-46.875000
4580,-44.921875
4581,-46.875000
4582,-44.921875
4583,-46.875000
4584,-46.875000
4585,-44.921875
4586,-44.921875
4587,-44.921875
4588,-42.968750
4589,-44.921875
4590,-42.968750
4591,-44.921875
4592,-41.015625
4593,-44.921875
4594,-44.921875
4595,-44.921875
4596,-46.875000
4597,-44.921875
4598,-44.921875
4599,-44.921875
4600,-44.921875
4601,-44.921875
4602,-41.015625
4603,-44.921875
4604,-46.875000
4605,-44.921875
4606,-42.968750
4607,-44.921875
4608,-42.968750
4609,-44.921875
4610,-42.968750
4611,-44.921875
4612,-42.968750
4613,-42.968750
4614,-44.921875
4615,-41.015625
4616,-46.875000
4617,-42.968750
4618,-44.921875
4619,-44.921875
4620,-41.015625
4621,-44.921875
4622,-42.968750
4623,-42.968750
4624,-42.968750
4625,-44.921875
4626,-48.828125
4627,-42.968750
4628,-41.015625
4629,-44.921875
4630,-41.015625
4631,-42.968750
4632,-44.921875
4633,-41.015625
4634,-44.921875
4635,-44.921875
4636,-41.015625
4637,-44.921875
4638,-41.015625
4639,-44.921875
4640,-41.015625
4641,-41.015625
4642,-42.968750
4643,-41.015625
4644,-41.015625
4645,-44.921875
4646,-44.921875
4647,-44.921875
4648,-44.921875
4649,-44.921875
4650,-41.015625
4651,-44.921875
4652,-41.015625
4653,-46.875000
4654,-41.015625
4655,-44.921875
4656,-52.734375
4657,-41.015625
4658,-44.921875
4659,-44.921875
4660,-41.015625
4661,-44.921875
4662,-42.968750
4663,-44.921875
4664,-44.921875
4665,-44.921875
4666,-46.875000
4667,-44.921875
4668,-44.921875
4669,-44.921875
4670,-41.015625
4671,-46.875000
4672,-41.015625
4673,-44.921875
4674,-44.921875
4675,-44.921875
4676,-44.921875
4677,-44.921875
4678,-41.015625
4679,-44.921875
4680,-44.921875
4681,-41.015625
4682,-44.921875
4683,-44.921875
4684,-42.968750
4685,-44.921875
4686,-41.015625
4687,-42.968750
4688,-37.109375
4689,-41.015625
4690,-44.921875
4691,-42.968750
4692,-44.921875
4693,-41.015625
4694,-44.921875
4695,-41.015625
4696,-41.015625
4697,-44.921875
4698,-44.921875
4699,-44.921875
4700,-44.921875
4701,-41.015625
4702,-44.921875
4703,-41.015625
4704,-41.015625
4705,-44.921875
4706,-41.015625
4707,-42.968750
4708,-44.921875
4709,-44.921875
4710,-44.921875
4711,-41.015625
4712,-44.921875
4713,-41.015625
4714,-41.015625
4715,-44.921875
4716,-41.015625
4717,-44.921875
4718,-41.015625
4719,-41.015625
4720,-39.062500
4721,-41.015625
4722,-44.921875
4723,-41.015625
4724,-42.968750
4725,-44.921875
4726,-41.015625
4727,-41.015625
4728,-42.968750
4729,-42.968750
4730,-41.015625
4731,-41.015625
4732,-42.968750
4733,-44.921875
4734,-46.875000
4735,-42.968750
4736,-44.921875
4737,-41.015625
4738,-41.015625
4739,-41.015625
4740,-44.921875
4741,-41.015625
4742,-41.015625
4743,-44.921875
4744,-41.015625
4745,-44.921875
4746,-42.968750
4747,-41.015625
4748,-44.921875
4749,-41.015625
4750,-44.921875
4751,-41.015625
4752,-46.875000
4753,-41.015625
4754,-41.015625
4755,-42.968750
4756,-41.015625
4757,-41.015625
4758,-44.921875
4759,-41.015625
4760,-44.921875
4761,-41.015625
4762,-41.015625
4763,-41.015625
4764,-41.015625
4765,-41.015625
4766,-41.015625
4767,-44.921875
4768,-44.921875
4769,-41.015625
4770,-42.968750
4771,-46.875000
4772,-41.015625
4773,-44.921875
4774,-41.015625
4775,-48.828125
4776,-42.968750
4777,-41.015625
4778,-44.921875
4779,-42.968750
4780,-46.875000
4781,-41.015625
4782,-41.015625
4783,-41.015625
4784,-42.968750
4785,-44.921875
4786,-41.015625
4787,-41.015625
4788,-44.921875
4789,-41.015625
4790,-41.015625
4791,-44.921875
4792,-46.875000
4793,-35.156250
4794,-44.921875
4795,-41.015625
4796,-42.968750
4797,-41.015625
4798,-41.015625
4799,-41.015625
4800,-44.921875
4801,-42.968750
4802,-41.015625
4803,-44.921875
4804,-41.015625
4805,-44.921875
4806,-46.875000
4807,-42.968750
4808,-44.921875
4809,-41.015625
4810,-44.921875
4811,-44.921875
4812,-44.921875
4813,-42.968750
4814,-41.015625
4815,-46.875000
4816,-41.015625
4817,-42.968750
4818,-44.921875
4819,-41.015625
4820,-44.921875
4821,-44.921875
4822,-42.968750
4823,-44.921875
4824,-41.015625
4825,-52.734375
4826,-44.921875
4827,-41.015625
4828,-44.921875
4829,-41.015625
4830,-41.015625
4831,-44.921875
4832,-41.015625
4833,-44.921875
4834,-41.015625
4835,-44.921875
4836,-44.921875
4837,-41.015625
4838,-46.875000
4839,-41.015625
4840,-41.015625
4841,-44.921875
4842,-44.921875
4843,-41.015625
4844,-44.921875
4845,-42.968750
4846,-44.921875
4847,-41.015625
4848,-41.015625
4849,-42.968750
4850,-41.015625
4851,-44.921875
4852,-41.015625
4853,-41.015625
4854,-44.921875
4855,-44.921875
4856,-46.875000
4857,-42.968750
4858,-42.968750
4859,-46.875000
4860,-44.921875
4861,-44.921875
4862,-44.921875
4863,-41.015625
4864,-44.921875
4865,-44.921875
4866,-46.875000
4867,-44.921875
4868,-44.921875
4869,-44.921875
4870,-44.921875
4871,-44.921875
4872,-44.921875
4873,-44.921875
4874,-44.921875
4875,-44.921875
4876,-44.921875
4877,-44.921875
4878,-44.921875
4879,-46.875000
4880,-44.921875
4881,-41.015625
4882,-44.921875
4883,-41.015625
4884,-46.875000
4885,-44.921875
4886,-44.921875
4887,-42.968750
4888,-42.968750
4889,-56.640625
4890,-44.921875
4891,-44.921875
4892,-44.921875
4893,-41.015625
4894,-44.921875
4895,-44.921875
4896,-46.875000
4897,-44.921875
4898,-44.921875
4899,-44.921875
4900,-44.921875
4901,-44.921875
4902,-44.921875
4903,-44.921875
4904,-44.921875
4905,-44.921875
4906,-44.921875
4907,-41.015625
4908,-44.921875
4909,-44.921875
4910,-42.968750
4911,-41.015625
4912,-42.968750
4913,-46.875000
4914,-42.968750
4915,-44.921875
4916,-48.828125
4917,-41.015625
4918,-44.921875
4919,-44.921875
4920,-44.921875
4921,-42.968750
4922,-41.015625
4923,-46.875000
4924,-46.875000
4925,-44.921875
4926,-44.921875
4927,-46.875000
4928,-41.015625
4929,-46.875000
4930,-39.062500
4931,-41.015625
4932,-44.921875
4933,-41.015625
4934,-44.921875
4935,-48.828125
4936,-44.921875
4937,-44.921875
4938,-41.015625
4939,-44.921875
4940,-46.875000
4941,-44.921875
4942,-44.921875
4943,-44.921875
4944,-46.875000
4945,-48.828125
4946,-44.921875
4947,-46.875000
4948,-44.921875
4949,-41.015625
4950,-42.968750
4951,-44.921875
4952,-44.921875
4953,-41.015625
4954,-44.921875
4955,-44.921875
4956,-44.921875
4957,-41.015625
4958,-44.921875
4959,-44.921875
4960,-44.921875
4961,-41.015625
4962,-46.875000
4963,-41.015625
4964,-44.921875
4965,-44.921875
4966,-44.921875
4967,-48.828125
4968,-44.921875
4969,-44.921875
4970,-41.015625
4971,-41.015625
4972,-44.921875
4973,-42.968750
4974,-44.921875
4975,-44.921875
4976,-44.921875
4977,-46.875000
4978,-41.015625
4979,-44.921875
4980,-44.921875
4981,-44.921875
4982,-44.921875
4983,-44.921875
4984,-44.921875
4985,-39.062500
4986,-41.015625
4987,-44.921875
4988,-44.921875
4989,-44.921875
4990,-46.875000
4991,-41.015625
4992,-42.968750
4993,-44.921875
4994,-44.921875
4995,-44.921875
4996,-41.015625
4997,-44.921875
4998,-41.015625
4999,-44.921875
5000,-42.968750
5001,-44.921875
5002,-44.921875
5003,-54.687500
5004,-44.921875
5005,-44.921875
5006,-44.921875
5007,-44.921875
5008,-41.015625
5009,-44.921875
5010,-44.921875
5011,-41.015625
5012,-46.875000
5013,-42.968750
5014,-44.921875
5015,-44.921875
5016,-44.921875
5017,-41.015625
5018,-42.968750
5019,-44.921875
5020,-44.921875
5021,-44.921875
5022,-44.921875
5023,-44.921875
5024,-44.921875
5025,-41.015625
5026,-44.921875
5027,-44.921875
5028,-44.921875
5029,-41.015625
5030,-44.921875
5031,-44.921875
5032,-44.921875
5033,-41.015625
5034,-44.921875
5035,-41.015625
5036,-41.015625
5037,-42.968750
5038,-41.015625
5039,-41.015625
5040,-41.015625
5041,-41.015625
5042,-44.921875
5043,-41.015625
5044,-44.921875
5045,-41.015625
5046,-33.203125
5047,-41.015625
5048,-44.921875
5049,-41.015625
5050,-44.921875
5051,-41.015625
5052,-44.921875
5053,-42.968750
5054,-41.015625
5055,-44.921875
5056,-41.015625
5057,-44.921875
5058,-41.015625
5059,-41.015625
5060,-41.015625
5061,-39.062500
5062,-44.921875
5063,-41.015625
5064,-42.968750
5065,-44.921875
5066,-41.015625
5067,-44.921875
5068,-41.015625
5069,-44.921875
5070,-44.921875
5071,-41.015625
5072,-41.015625
5073,-41.015625
5074,-44.921875
5075,-41.015625
5076,-42.968750
5077,-44.921875
5078,-42.968750
5079,-44.921875
5080,-44.921875
5081,-41.015625
5082,-41.015625
5083,-42.968750
5084,-41.015625
5085,-44.921875
5086,-41.015625
5087,-41.015625
5088,-41.015625
5089,-41.015625
5090,-44.921875
5091,-41.015625
5092,-42.968750
5093,-42.968750
5094,-44.921875
5095,-48.828125
5096,-41.015625
5097,-46.875000
5098,-41.015625
5099,-44.921875
5100,-44.921875
5101,-42.968750
5102,-44.921875
5103,-41.015625
5104,-44.921875
5105,-42.968750
5106,-41.015625
5107,-44.921875
5108,-41.015625
5109,-44.921875
5110,-41.015625
5111,-44.921875
5112,-44.921875
5113,-33.203125
5114,-44.921875
5115,-44.921875
5116,-41.015625
5117,-42.968750
5118,-41.015625
5119,-41.015625
5120,-44.921875
5121,-41.015625
5122,-41.015625
5123,-42.968750
5124,-41.015625
5125,-44.921875
5126,-41.015625
5127,-42.968750
5128,-41.015625
5129,-41.015625
5130,-44.921875
5131,-41.015625
5132,-42.968750
5133,-41.015625
5134,-41.015625
5135,-44.921875
5136,-44.921875
5137,-42.968750
5138,-42.968750
5139,-41.015625
5140,-44.921875
5141,-42.968750
5142,-41.015625
5143,-44.921875
5144,-44.921875
5145,-42.968750
5146,-41.015625
5147,-41.015625
5148,-44.921875
5149,-41.015625
5150,-42.968750
5151,-44.921875
5152,-41.015625
5153,-42.968750
5154,-42.968750
5155,-44.921875
5156,-42.968750
5157,-44.921875
5158,-41.015625
5159,-44.921875
5160,-41.015625
5161,-44.921875
5162,-42.968750
5163,-44.921875
5164,-44.921875
5165,-41.015625
5166,-44.921875
5167,-44.921875
5168,-46.875000
5169,-44.921875
5170,-42.968750
5171,-44.921875
5172,-44.921875
5173,-41.015625
5174,-44.921875
5175,-46.875000
5176,-41.015625
5177,-41.015625
5178,-44.921875
5179,-41.015625
5180,-44.921875
5181,-41.015625
5182,-41.015625
5183,-44.921875
5184,-41.015625
5185,-41.015625
5186,-41.015625
5187,-41.015625
5188,-42.968750
5189,-41.015625
5190,-41.015625
5191,-41.015625
5192,-41.015625
5193,-41.015625
5194,-41.015625
5195,-41.015625
5196,-41.015625
5197,-41.015625
5198,-41.015625
5199,-41.015625
5200,-41.015625
5201,-42.968750
5202,-41.015625
5203,-41.015625
5204,-41.015625
5205,-41.015625
5206,-41.015625
5207,-41.015625
5208,-41.015625
5209,-41.015625
5210,-41.015625
5211,-41.015625
5212,-41.015625
5213,-41.015625
5214,-41.015625
5215,-44.921875
5216,-41.015625
5217,-41.015625
5218,-44.921875
5219,-41.015625
5220,-44.921875
5221,-41.015625
5222,-41.015625
5223,-44.921875
5224,-44.921875
5225,-44.921875
5226,-44.921875
5227,-56.640625
5228,-42.968750
5229,-42.968750
5230,-44.921875
5231,-44.921875
5232,-41.015625
5233,-42.968750
5234,-41.015625
5235,-41.015625
5236,-41.015625
5237,-41.015625
5238,-44.921875
5239,-41.015625
5240,-41.015625
5241,-39.062500
5242,-41.015625
5243,-41.015625
5244,-41.015625
5245,-41.015625
5246,-42.968750
5247,-41.015625
5248,-44.921875
5249,-41.015625
5250,-44.921875
5251,-44.921875
5252,-44.921875
5253,-46.875000
5254,-44.921875
5255,-48.828125
5256,-46.875000
5257,-46.875000
5258,-48.828125
5259,-41.015625
5260,-48.828125
5261,-50.781250
5262,-48.828125
5263,-52.734375
5264,-48.828125
5265,-52.734375
5266,-52.734375
5267,-50.781250
5268,-48.828125
5269,-54.687500
5270,-54.687500
5271,-56.640625
5272,-50.781250
5273,-56.640625
5274,-54.687500
5275,-54.687500
5276,-52.734375
5277,-52.734375
5278,-56.640625
5279,-54.687500
5280,-56.640625
5281,-56.640625
5282,-56.640625
5283,-52.734375
5284,-56.640625
5285,-54.687500
5286,-56.640625
5287,-54.687500
5288,-52.734375
5289,-56.640625
5290,-52.734375
5291,-54.687500
5292,-54.687500
5293,-54.687500
5294,-56.640625
5295,-56.640625
5296,-56.640625
5297,-54.687500
5298,-54.687500
5299,-56.640625
5300,-64.453125
5301,-56.640625
5302,-54.687500
5303,-54.687500
5304,-56.640625
5305,-52.734375
5306,-56.640625
5307,-56.640625
5308,-56.640625
5309,-56.640625
5310,-56.640625
5311,-60.546875
5312,-56.640625
5313,-56.640625
5314,-62.500000
5315,-56.640625
5316,-60.546875
5317,-56.640625
5318,-60.546875
5319,-62.500000
5320,-56.640625
5321,-60.546875
5322,-60.546875
5323,-56.640625
5324,-60.546875
5325,-56.640625
5326,-60.546875
5327,-60.546875
5328,-56.640625
5329,-60.546875
5330,-56.640625
5331,-60.546875
5332,-68.359375
5333,-66.406250
5334,-56.640625
5335,-56.640625
5336,-56.640625
5337,-56.640625
5338,-56.640625
5339,-60.546875
5340,-56.640625
5341,-56.640625
5342,-60.546875
5343,-56.640625
5344,-60.546875
5345,-56.640625
5346,-58.593750
5347,-60.546875
5348,-56.640625
5349,-60.546875
5350,-56.640625
5351,-56.640625
5352,-60.546875
5353,-56.640625
5354,-60.546875
5355,-56.640625
5356,-60.546875
5357,-56.640625
5358,-56.640625
5359,-60.546875
5360,-56.640625
5361,-56.640625
5362,-62.500000
5363,-56.640625
5364,-62.500000
5365,-60.546875
5366,-56.640625
5367,-58.593750
5368,-60.546875
5369,-60.546875
5370,-60.546875
5371,-60.546875
5372,-62.500000
5373,-56.640625
5374,-56.640625
5375,-60.546875
5376,-64.453125
5377,-60.546875
5378,-56.640625
5379,-58.593750
5380,-56.640625
5381,-60.546875
5382,-62.500000
5383,-56.640625
5384,-56.640625
5385,-56.640625
5386,-56.640625
5387,-62.500000
5388,-56.640625
5389,-60.546875
5390,-62.500000
5391,-58.593750
5392,-56.640625
5393,-60.546875
5394,-60.546875
5395,-60.546875
5396,-60.546875
5397,-60.546875
5398,-60.546875
5399,-60.546875
5400,-56.640625
5401,-60.546875
5402,-60.546875
5403,-60.546875
5404,-58.593750
5405,-60.546875
5406,-60.546875
5407,-60.546875
5408,-60.546875
5409,-60.546875
5410,-60.546875
5411,-62.500000
5412,-56.640625
5413,-62.500000
5414,-60.546875
5415,-56.640625
5416,-62.500000
5417,-56.640625
5418,-60.546875
5419,-60.546875
5420,-60.546875
5421,-60.546875
5422,-60.546875
5423,-60.546875
5424,-62.500000
5425,-60.546875
5426,-54.687500
5427,-60.546875
5428,-60.546875
5429,-60.546875
5430,-60.546875
5431,-56.640625
5432,-60.546875
5433,-62.500000
5434,-60.546875
5435,-60.546875
5436,-60.546875
5437,-60.546875
5438,-60.546875
5439,-60.546875
5440,-60.546875
5441,-60.546875
5442,-60.546875
5443,-60.546875
5444,-60.546875
5445,-62.500000
5446,-60.546875
5447,-62.500000
5448,-60.546875
5449,-56.640625
5450,-62.500000
5451,-60.546875
5452,-60.546875
5453,-60.546875
5454,-60.546875
5455,-62.500000
5456,-62.500000
5457,-62.500000
5458,-62.500000
5459,-60.546875
5460,-50.781250
5461,-60.546875
5462,-62.500000
5463,-60.546875
5464,-60.546875
5465,-64.453125
5466,-60.546875
5467,-62.500000
5468,-56.640625
5469,-60.546875
5470,-62.500000
5471,-60.546875
5472,-60.546875
5473,-60.546875
5474,-62.500000
5475,-60.546875
5476,-60.546875
5477,-60.546875
5478,-60.546875
5479,-60.546875
5480,-60.546875
5481,-60.546875
5482,-60.546875
5483,-64.453125
5484,-58.593750
5485,-60.546875
5486,-60.546875
5487,-48.828125
5488,-62.500000
5489,-60.546875
5490,-62.500000
5491,-60.546875
5492,-44.921875
5493,-60.546875
5494,-58.593750
5495,-60.546875
5496,-60.546875
5497,-60.546875
5498,-60.546875
5499,-60.546875
5500,-60.546875
5501,-64.453125
5502,-62.500000
5503,-60.546875
5504,-60.546875
5505,-60.546875
5506,-60.546875
5507,-60.546875
5508,-60.546875
5509,-56.640625
5510,-62.500000
5511,-60.546875
5512,-60.546875
5513,-60.546875
5514,-56.640625
5515,-60.546875
5516,-58.593750
5517,-56.640625
5518,-56.640625
5519,-56.640625
5520,-60.546875
5521,-58.593750
5522,-60.546875
5523,-58.593750
5524,-56.640625
5525,-60.546875
5526,-56.640625
5527,-54.687500
5528,-58.593750
5529,-56.640625
5530,-56.640625
5531,-60.546875
5532,-56.640625
5533,-58.593750
5534,-56.640625
5535,-56.640625
5536,-56.640625
5537,-56.640625
5538,-60.546875
5539,-56.640625
5540,-56.640625
5541,-56.640625
5542,-56.640625
5543,-56.640625
5544,-56.640625
5545,-56.640625
5546,-60.546875
5547,-56.640625
5548,-58.593750
5549,-58.593750
5550,-60.546875
5551,-60.546875
5552,-64.453125
5553,-56.640625
5554,-58.593750
5555,-56.640625
5556,-56.640625
5557,-56.640625
5558,-56.640625
5559,-58.593750
5560,-56.640625
5561,-60.546875
5562,-56.640625
5563,-60.546875
5564,-60.546875
5565,-56.640625
5566,-62.500000
5567,-56.640625
5568,-58.593750
5569,-56.640625
5570,-56.640625
5571,-58.593750
5572,-58.593750
5573,-56.640625
5574,-60.546875
5575,-56.640625
5576,-54.687500
5577,-60.546875
5578,-56.640625
5579,-60.546875
5580,-56.640625
5581,-56.640625
5582,-56.640625
5583,-52.734375
5584,-56.640625
5585,-56.640625
5586,-56.640625
5587,-58.593750
5588,-54.687500
5589,-56.640625
5590,-56.640625
5591,-56.640625
5592,-56.640625
5593,-56.640625
5594,-56.640625
5595,-56.640625
5596,-56.640625
5597,-58.593750
5598,-56.640625
5599,-56.640625
5600,-56.640625
5601,-56.640625
5602,-58.593750
5603,-54.687500
5604,-60.546875
5605,-56.640625
5606,-56.640625
5607,-56.640625
5608,-56.640625
5609,-60.546875
5610,-56.640625
5611,-48.828125
5612,-58.593750
5613,-54.687500
5614,-54.687500
5615,-54.687500
5616,-52.734375
5617,-56.640625
5618,-48.828125
5619,-56.640625
5620,-56.640625
5621,-48.828125
5622,-52.734375
5623,-54.687500
5624,-50.781250
5625,-56.640625
5626,-48.828125
5627,-52.734375
5628,-48.828125
5629,-50.781250
5630,-50.781250
5631,-46.875000
5632,-52.734375
5633,-50.781250
5634,-46.875000
5635,-48.828125
5636,-48.828125
5637,-48.828125
5638,-48.828125
5639,-46.875000
5640,-48.828125
5641,-33.203125
5642,-44.921875
5643,-46.875000
5644,-48.828125
5645,-46.875000
5646,-46.875000
5647,-48.828125
5648,-48.828125
5649,-44.921875
5650,-46.875000
5651,-44.921875
5652,-50.781250
5653,-46.875000
5654,-48.828125
5655,-44.921875
5656,-44.921875
5657,-46.875000
5658,-48.828125
5659,-50.781250
5660,-48.828125
5661,-44.921875
5662,-46.875000
5663,-46.875000
5664,-48.828125
5665,-46.875000
5666,-48.828125
5667,-48.828125
5668,-48.828125
5669,-44.921875
5670,-46.875000
5671,-44.921875
5672,-44.921875
5673,-44.921875
5674,-44.921875
5675,-44.921875
5676,-48.828125
5677,-44.921875
5678,-46.875000
5679,-44.921875
5680,-44.921875
5681,-44.921875
5682,-44.921875
5683,-46.875000
5684,-46.875000
5685,-44.921875
5686,-44.921875
5687,-42.968750
5688,-44.921875
5689,-44.921875
5690,-44.921875
5691,-44.921875
5692,-44.921875
5693,-44.921875
5694,-44.921875
5695,-44.921875
5696,-44.921875
5697,-41.015625
5698,-44.921875
5699,-44.921875
5700,-44.921875
5701,-44.921875
5702,-41.015625
5703,-44.921875
5704,-44.921875
5705,-44.921875
5706,-44.921875
5707,-41.015625
5708,-41.015625
5709,-44.921875
5710,-41.015625
5711,-50.781250
5712,-44.921875
5713,-44.921875
5714,-46.875000
5715,-44.921875
5716,-44.921875
5717,-41.015625
5718,-41.015625
5719,-46.875000
5720,-41.015625
5721,-42.968750
5722,-44.921875
5723,-44.921875
5724,-44.921875
5725,-41.015625
5726,-44.921875
5727,-44.921875
5728,-41.015625
5729,-44.921875
5730,-41.015625
5731,-41.015625
5732,-44.921875
5733,-41.015625
5734,-44.921875
5735,-44.921875
5736,-41.015625
5737,-44.921875
5738,-41.015625
5739,-33.203125
5740,-41.015625
5741,-41.015625
5742,-44.921875
5743,-41.015625
5744,-42.968750
5745,-42.968750
5746,-44.921875
5747,-41.015625
5748,-44.921875
5749,-41.015625
5750,-44.921875
5751,-41.015625
5752,-44.921875
5753,-44.921875
5754,-41.015625
5755,-46.875000
5756,-42.968750
5757,-44.921875
5758,-44.921875
5759,-44.921875
5760,-44.921875
5761,-44.921875
5762,-44.921875
5763,-44.921875
5764,-44.921875
5765,-41.015625
5766,-44.921875
5767,-41.015625
5768,-44.921875
5769,-41.015625
5770,-44.921875
5771,-58.593750
5772,-41.015625
5773,-44.921875
5774,-42.968750
5775,-44.921875
5776,-44.921875
5777,-42.968750
5778,-44.921875
5779,-41.015625
5780,-44.921875
5781,-44.921875
5782,-41.015625
5783,-44.921875
5784,-42.968750
5785,-44.921875
5786,-44.921875
5787,-44.921875
5788,-42.968750
5789,-42.968750
5790,-42.968750
5791,-44.921875
5792,-41.015625
5793,-44.921875
5794,-44.921875
5795,-42.968750
5796,-44.921875
5797,-41.015625
5798,-44.921875
5799,-44.921875
5800,-44.921875
5801,-44.921875
5802,-44.921875
5803,-46.875000
5804,-41.015625
5805,-41.015625
5806,-44.921875
5807,-41.015625
5808,-44.921875
5809,-46.875000
5810,-44.921875
5811,-44.921875
5812,-44.921875
5813,-46.875000
5814,-44.921875
5815,-41.015625
5816,-44.921875
5817,-41.015625
5818,-41.015625
5819,-44.921875
5820,-44.921875
5821,-44.921875
5822,-42.968750
5823,-44.921875
5824,-44.921875
5825,-41.015625
5826,-44.921875
5827,-41.015625
5828,-44.921875
5829,-44.921875
5830,-44.921875
5831,-46.875000
5832,-44.921875
5833,-44.921875
5834,-44.921875
5835,-44.921875
5836,-42.968750
5837,-44.921875
5838,-41.015625
5839,-44.921875
5840,-44.921875
5841,-41.015625
5842,-42.968750
5843,-44.921875
5844,-44.921875
5845,-41.015625
5846,-44.921875
5847,-44.921875
5848,-44.921875
5849,-44.921875
5850,-41.015625
5851,-44.921875
5852,-41.015625
5853,-44.921875
5854,-46.875000
5855,-41.015625
5856,-46.875000
5857,-41.015625
5858,-41.015625
5859,-44.921875
5860,-44.921875
5861,-44.921875
5862,-41.015625
5863,-44.921875
5864,-44.921875
5865,-44.921875
5866,-44.921875
5867,-41.015625
5868,-44.921875
5869,-44.921875
5870,-44.921875
5871,-44.921875
5872,-46.875000
5873,-44.921875
5874,-44.921875
5875,-44.921875
5876,-52.734375
5877,-44.921875
5878,-44.921875
5879,-46.875000
5880,-41.015625
5881,-46.875000
5882,-44.921875
5883,-44.921875
5884,-46.875000
5885,-41.015625
5886,-46.875000
5887,-44.921875
5888,-42.968750
5889,-44.921875
5890,-44.921875
5891,-42.968750
5892,-44.921875
5893,-44.921875
5894,-44.921875
5895,-44.921875
5896,-44.921875
5897,-44.921875
5898,-44.921875
5899,-42.968750
5900,-44.921875
5901,-44.921875
5902,-44.921875
5903,-46.875000
5904,-42.968750
5905,-44.921875
5906,-46.875000
5907,-41.015625
5908,-46.875000
5909,-44.921875
5910,-44.921875
5911,-44.921875
5912,-41.015625
5913,-48.828125
5914,-41.015625
5915,-44.921875
5916,-46.875000
5917,-41.015625
5918,-44.921875
5919,-44.921875
5920,-41.015625
5921,-46.875000
5922,-44.921875
5923,-42.968750
5924,-44.921875
5925,-41.015625
5926,-41.015625
5927,-46.875000
5928,-41.015625
5929,-44.921875
5930,-46.875000
5931,-41.015625
5932,-46.875000
5933,-42.968750
5934,-44.921875
5935,-42.968750
5936,-44.921875
5937,-44.921875
5938,-44.921875
5939,-41.015625
5940,-44.921875
5941,-44.921875
5942,-44.921875
5943,-41.015625
5944,-42.968750
5945,-44.921875
5946,-44.921875
5947,-44.921875
5948,-42.968750
5949,-46.875000
5950,-44.921875
5951,-41.015625
5952,-41.015625
5953,-41.015625
5954,-44.921875
5955,-44.921875
5956,-44.921875
5957,-44.921875
5958,-41.015625
5959,-44.921875
5960,-44.921875
5961,-41.015625
5962,-44.921875
5963,-41.015625
5964,-41.015625
5965,-46.875000
5966,-44.921875
5967,-46.875000
5968,-44.921875
5969,-44.921875
5970,-44.921875
5971,-44.921875
5972,-44.921875
5973,-44.921875
5974,-44.921875
5975,-44.921875
5976,-44.921875
5977,-44.921875
5978,-41.015625
5979,-42.968750
5980,-44.921875
5981,-44.921875
5982,-44.921875
5983,-44.921875
5984,-41.015625
5985,-44.921875
5986,-44.921875
5987,-44.921875
5988,-44.921875
5989,-44.921875
5990,-44.921875
5991,-44.921875
5992,-44.921875
5993,-44.921875
5994,-44.921875
5995,-44.921875
5996,-44.921875
5997,-44.921875
5998,-44.921875
5999,-41.015625
6000,-44.921875
6001,-44.921875
6002,-41.015625
6003,-44.921875
6004,-41.015625
6005,-44.921875
6006,-44.921875
6007,-44.921875
6008,-46.875000
6009,-41.015625
6010,-46.875000
6011,-41.015625
6012,-44.921875
6013,-44.921875
6014,-44.921875
6015,-44.921875
6016,-44.921875
6017,-44.921875
6018,-44.921875
6019,-44.921875
6020,-44.921875
6021,-42.968750
6022,-42.968750
6023,-44.921875
6024,-41.015625
6025,-44.921875
6026,-41.015625
6027,-44.921875
6028,-41.015625
6029,-41.015625
6030,-44.921875
6031,-44.921875
6032,-41.015625
6033,-42.968750
6034,-41.015625
6035,-41.015625
6036,-50.781250
6037,-41.015625
6038,-44.921875
6039,-44.921875
6040,-41.015625
6041,-41.015625
6042,-41.015625
6043,-42.968750
6044,-44.921875
6045,-33.203125
6046,-44.921875
6047,-41.015625
6048,-41.015625
6049,-44.921875
6050,-41.015625
6051,-44.921875
6052,-41.015625
6053,-42.968750
6054,-44.921875
6055,-41.015625
6056,-44.921875
6057,-41.015625
6058,-44.921875
6059,-44.921875
6060,-41.015625
6061,-42.968750
6062,-44.921875
6063,-41.015625
6064,-44.921875
6065,-41.015625
6066,-44.921875
6067,-42.968750
6068,-44.921875
6069,-44.921875
6070,-41.015625
6071,-44.921875
6072,-44.921875
6073,-41.015625
6074,-44.921875
6075,-41.015625
6076,-44.921875
6077,-41.015625
6078,-41.015625
6079,-44.921875
6080,-44.921875
6081,-44.921875
6082,-44.921875
6083,-41.015625
6084,-44.921875
6085,-41.015625
6086,-44.921875
6087,-44.921875
6088,-42.968750
6089,-41.015625
6090,-41.015625
6091,-41.015625
6092,-44.921875
6093,-41.015625
6094,-44.921875
6095,-44.921875
6096,-41.015625
6097,-42.968750
6098,-41.015625
6099,-44.921875
6100,-41.015625
6101,-44.921875
6102,-44.921875
6103,-41.015625
6104,-44.921875
6105,-41.015625
6106,-44.921875
6107,-44.921875
6108,-41.015625
6109,-37.109375
6110,-41.015625
6111,-44.921875
6112,-44.921875
6113,-44.921875
6114,-44.921875
6115,-44.921875
6116,-44.921875
6117,-46.875000
6118,-44.921875
6119,-42.968750
6120,-48.828125
6121,-41.015625
6122,-48.828125
6123,-48.828125
6124,-46.875000
6125,-48.828125
6126,-44.921875
6127,-48.828125
6128,-44.921875
6129,-48.828125
6130,-48.828125
6131,-50.781250
6132,-48.828125
6133,-48.828125
6134,-46.875000
6135,-48.828125
6136,-50.781250
6137,-48.828125
6138,-50.781250
6139,-48.828125
6140,-52.734375
6141,-54.687500
6142,-50.781250
6143,-52.734375
6144,-50.781250
6145,-50.781250
6146,-48.828125
6147,-52.734375
6148,-52.734375
6149,-50.781250
6150,-54.687500
6151,-52.734375
6152,-54.687500
6153,-52.734375
6154,-56.640625
6155,-52.734375
6156,-56.640625
6157,-56.640625
6158,-56.640625
6159,-56.640625
6160,-56.640625
6161,-56.640625
6162,-56.640625
6163,-56.640625
6164,-56.640625
6165,-56.640625
6166,-56.640625
6167,-60.546875
6168,-54.687500
6169,-56.640625
6170,-56.640625
6171,-56.640625
6172,-60.546875
6173,-56.640625
6174,-56.640625
6175,-70.312500
6176,-56.640625
6177,-56.640625
6178,-60.546875
6179,-58.593750
6180,-56.640625
6181,-60.546875
6182,-50.781250
6183,-60.546875
6184,-60.546875
6185,-58.593750
6186,-60.546875
6187,-56.640625
6188,-60.546875
6189,-60.546875
6190,-56.640625
6191,-60.546875
6192,-60.546875
6193,-62.500000
6194,-56.640625
6195,-60.546875
6196,-62.500000
6197,-58.593750
6198,-60.546875
6199,-58.593750
6200,-60.546875
6201,-60.546875
6202,-56.640625
6203,-60.546875
6204,-60.546875
6205,-60.546875
6206,-60.546875
6207,-60.546875
6208,-60.546875
6209,-62.500000
6210,-58.593750
6211,-62.500000
6212,-60.546875
6213,-62.500000
6214,-56.640625
6215,-56.640625
6216,-60.546875
6217,-60.546875
6218,-62.500000
6219,-60.546875
6220,-60.546875
6221,-60.546875
6222,-60.546875
6223,-60.546875
6224,-60.546875
6225,-60.546875
6226,-60.546875
6227,-60.546875
6228,-58.593750
6229,-60.546875
6230,-60.546875
6231,-60.546875
6232,-60.546875
6233,-56.640625
6234,-62.500000
6235,-60.546875
6236,-60.546875
6237,-60.546875
6238,-60.546875
6239,-60.546875
6240,-60.546875
6241,-60.546875
6242,-56.640625
6243,-58.593750
6244,-62.500000
6245,-56.640625
6246,-72.265625
6247,-62.500000
6248,-60.546875
6249,-60.546875
6250,-60.546875
6251,-60.546875
6252,-64.453125
6253,-60.546875
6254,-62.500000
6255,-60.546875
6256,-60.546875
6257,-62.500000
6258,-60.546875
6259,-62.500000
6260,-64.453125
6261,-60.546875
6262,-62.500000
6263,-62.500000
6264,-60.546875
6265,-62.500000
6266,-60.546875
6267,-62.500000
6268,-62.500000
6269,-64.453125
6270,-62.500000
6271,-60.546875
6272,-60.546875
6273,-60.546875
6274,-60.546875
6275,-60.546875
6276,-60.546875
6277,-60.546875
6278,-64.453125
6279,-54.687500
6280,-60.546875
6281,-58.593750
6282,-60.546875
6283,-58.593750
6284,-60.546875
6285,-60.546875
6286,-60.546875
6287,-56.640625
6288,-60.546875
6289,-60.546875
6290,-60.546875
6291,-60.546875
6292,-60.546875
6293,-62.500000
6294,-60.546875
6295,-60.546875
6296,-60.546875
6297,-60.546875
6298,-60.546875
6299,-60.546875
6300,-60.546875
6301,-60.546875
6302,-56.640625
6303,-60.546875
6304,-60.546875
6305,-60.546875
6306,-64.453125
6307,-60.546875
6308,-62.500000
6309,-60.546875
6310,-44.921875
6311,-60.546875
6312,-60.546875
6313,-62.500000
6314,-60.546875
6315,-62.500000
6316,-62.500000
6317,-60.546875
6318,-60.546875
6319,-60.546875
6320,-60.546875
6321,-60.546875
6322,-58.593750
6323,-60.546875
6324,-60.546875
6325,-60.546875
6326,-62.500000
6327,-62.500000
6328,-60.546875
6329,-58.593750
6330,-60.546875
6331,-60.546875
6332,-60.546875
6333,-60.546875
6334,-60.546875
6335,-60.546875
6336,-62.500000
6337,-60.546875
6338,-60.546875
6339,-62.500000
6340,-60.546875
6341,-62.500000
6342,-60.546875
6343,-60.546875
6344,-60.546875
6345,-60.546875
6346,-60.546875
6347,-60.546875
6348,-60.546875
6349,-60.546875
6350,-60.546875
6351,-64.453125
6352,-62.500000
6353,-62.500000
6354,-64.453125
6355,-60.546875
6356,-60.546875
6357,-62.500000
6358,-62.500000
6359,-64.453125
6360,-62.500000
6361,-62.500000
6362,-60.546875
6363,-60.546875
6364,-62.500000
6365,-60.546875
6366,-62.500000
6367,-64.453125
6368,-60.546875
6369,-62.500000
6370,-56.640625
6371,-60.546875
6372,-60.546875
6373,-56.640625
6374,-64.453125
6375,-60.546875
6376,-60.546875
6377,-60.546875
6378,-60.546875
6379,-60.546875
6380,-56.640625
6381,-56.640625
6382,-60.546875
6383,-60.546875
6384,-56.640625
6385,-58.593750
6386,-56.640625
6387,-60.546875
6388,-58.593750
6389,-56.640625
6390,-56.640625
6391,-56.640625
6392,-56.640625
6393,-56.640625
6394,-58.593750
6395,-56.640625
6396,-56.640625
6397,-54.687500
6398,-56.640625
6399,-56.640625
6400,-56.640625
6401,-60.546875
6402,-56.640625
6403,-56.640625
6404,-56.640625
6405,-50.781250
6406,-60.546875
6407,-56.640625
6408,-56.640625
6409,-58.593750
6410,-54.687500
6411,-58.593750
6412,-56.640625
6413,-56.640625
6414,-60.546875
6415,-56.640625
6416,-60.546875
6417,-56.640625
6418,-52.734375
6419,-60.546875
6420,-56.640625
6421,-56.640625
6422,-60.546875
6423,-56.640625
6424,-62.500000
6425,-56.640625
6426,-56.640625
6427,-56.640625
6428,-56.640625
6429,-58.593750
6430,-52.734375
6431,-56.640625
6432,-56.640625
6433,-60.546875
6434,-56.640625
6435,-56.640625
6436,-56.640625
6437,-56.640625
6438,-56.640625
6439,-56.640625
6440,-56.640625
6441,-56.640625
6442,-56.640625
6443,-56.640625
6444,-56.640625
6445,-56.640625
6446,-58.593750
6447,-68.359375
6448,-56.640625
6449,-56.640625
6450,-56.640625
6451,-58.593750
6452,-56.640625
6453,-58.593750
6454,-58.593750
6455,-56.640625
6456,-60.546875
6457,-56.640625
6458,-60.546875
6459,-56.640625
6460,-54.687500
6461,-56.640625
6462,-56.640625
6463,-56.640625
6464,-60.546875
6465,-56.640625
6466,-56.640625
6467,-60.546875
6468,-56.640625
6469,-60.546875
6470,-56.640625
6471,-56.640625
6472,-56.640625
6473,-56.640625
6474,-56.640625
6475,-56.640625
6476,-56.640625
6477,-58.593750
6478,-56.640625
6479,-60.546875
6480,-56.640625
6481,-54.687500
6482,-58.593750
6483,-54.687500
6484,-56.640625
6485,-56.640625
6486,-54.687500
6487,-56.640625
6488,-60.546875
6489,-56.640625
6490,-54.687500
6491,-56.640625
6492,-56.640625
6493,-54.687500
6494,-56.640625
6495,-54.687500
6496,-54.687500
6497,-56.640625
6498,-52.734375
6499,-56.640625
6500,-54.687500
6501,-52.734375
6502,-54.687500
6503,-56.640625
6504,-56.640625
6505,-56.640625
6506,-50.781250
6507,-56.640625
6508,-54.687500
6509,-54.687500
6510,-56.640625
6511,-50.781250
6512,-56.640625
6513,-52.734375
6514,-52.734375
6515,-52.734375
6516,-52.734375
6517,-54.687500
6518,-52.734375
6519,-58.593750
6520,-54.687500
6521,-52.734375
6522,-52.734375
6523,-50.781250
6524,-52.734375
6525,-48.828125
6526,-50.781250
6527,-52.734375
6528,-52.734375
6529,-48.828125
6530,-52.734375
6531,-50.781250
6532,-50.781250
6533,-48.828125
6534,-54.687500
6535,-48.828125
6536,-46.875000
6537,-48.828125
6538,-48.828125
6539,-48.828125
6540,-82.031250
6541,-44.921875
6542,-48.828125
6543,-46.875000
6544,-46.875000
6545,-46.875000
6546,-46.875000
6547,-44.921875
6548,-46.875000
6549,-44.921875
6550,-46.875000
6551,-44.921875
6552,-41.015625
6553,-46.875000
6554,-44.921875
6555,-46.875000
6556,-44.921875
6557,-50.781250
6558,-46.875000
6559,-44.921875
6560,-46.875000
6561,-44.921875
6562,-44.921875
6563,-44.921875
6564,-46.875000
6565,-44.921875
6566,-44.921875
6567,-46.875000
6568,-44.921875
6569,-42.968750
6570,-48.828125
6571,-42.968750
6572,-44.921875
6573,-44.921875
6574,-44.921875
6575,-46.875000
6576,-41.015625
6577,-44.921875
6578,-44.921875
6579,-48.828125
6580,-41.015625
6581,-44.921875
6582,-44.921875
6583,-44.921875
6584,-41.015625
6585,-42.968750
6586,-41.015625
6587,-44.921875
6588,-44.921875
6589,-41.015625
6590,-46.875000
6591,-42.968750
6592,-41.015625
6593,-44.921875
6594,-46.875000
6595,-44.921875
6596,-44.921875
6597,-44.921875
6598,-41.015625
6599,-41.015625
6600,-44.921875
6601,-44.921875
6602,-44.921875
6603,-44.921875
6604,-44.921875
6605,-44.921875
6606,-44.921875
6607,-42.968750
6608,-44.921875
6609,-44.921875
6610,-44.921875
6611,-48.828125
6612,-44.921875
6613,-46.875000
6614,-44.921875
6615,-44.921875
6616,-39.062500
6617,-42.968750
6618,-48.828125
6619,-44.921875
6620,-44.921875
6621,-44.921875
6622,-41.015625
6623,-44.921875
6624,-46.875000
6625,-44.921875
6626,-44.921875
6627,-44.921875
6628,-44.921875
6629,-41.015625
6630,-44.921875
6631,-42.968750
6632,-44.921875
6633,-44.921875
6634,-44.921875
6635,-41.015625
6636,-44.921875
6637,-41.015625
6638,-44.921875
6639,-48.828125
6640,-41.015625
6641,-44.921875
6642,-44.921875
6643,-44.921875
6644,-48.828125
6645,-44.921875
6646,-46.875000
6647,-41.015625
6648,-39.062500
6649,-41.015625
6650,-44.921875
6651,-46.875000
6652,-44.921875
6653,-48.828125
6654,-41.015625
6655,-46.875000
6656,-44.921875
6657,-42.968750
6658,-46.875000
6659,-42.968750
6660,-46.875000
6661,-44.921875
6662,-46.875000
6663,-44.921875
6664,-44.921875
6665,-46.875000
6666,-44.921875
6667,-41.015625
6668,-46.875000
6669,-44.921875
6670,-44.921875
6671,-48.828125
6672,-44.921875
6673,-46.875000
6674,-44.921875
6675,-44.921875
6676,-44.921875
6677,-44.921875
6678,-42.968750
6679,-44.921875
6680,-44.921875
6681,-44.921875
6682,-44.921875
6683,-44.921875
6684,-44.921875
6685,-41.015625
6686,-41.015625
6687,-44.921875
6688,-41.015625
6689,-46.875000
6690,-44.921875
6691,-42.968750
6692,-44.921875
6693,-44.921875
6694,-48.828125
6695,-44.921875
6696,-44.921875
6697,-44.921875
6698,-44.921875
6699,-44.921875
6700,-44.921875
6701,-44.921875
6702,-48.828125
6703,-39.062500
6704,-44.921875
6705,-44.921875
6706,-44.921875
6707,-46.875000
6708,-44.921875
6709,-46.875000
6710,-48.828125
6711,-44.921875
6712,-46.875000
6713,-44.921875
6714,-44.921875
6715,-44.921875
6716,-44.921875
6717,-44.921875
6718,-44.921875
6719,-44.921875
6720,-46.875000
6721,-44.921875
6722,-44.921875
6723,-44.921875
6724,-46.875000
6725,-46.875000
6726,-44.921875
6727,-44.921875
6728,-46.875000
6729,-41.015625
6730,-44.921875
6731,-44.921875
6732,-44.921875
6733,-46.875000
6734,-42.968750
6735,-46.875000
6736,-41.015625
6737,-46.875000
6738,-44.921875
6739,-42.968750
6740,-46.875000
6741,-44.921875
6742,-44.921875
6743,-46.875000
6744,-44.921875
6745,-44.921875
6746,-44.921875
6747,-44.921875
6748,-44.921875
6749,-41.015625
6750,-46.875000
6751,-44.921875
6752,-44.921875
6753,-44.921875
6754,-41.015625
6755,-44.921875
6756,-44.921875
6757,-44.921875
6758,-48.828125
6759,-42.968750
6760,-44.921875
6761,-42.968750
6762,-44.921875
6763,-46.875000
6764,-44.921875
6765,-46.875000
6766,-44.921875
6767,-50.781250
6768,-46.875000
6769,-42.968750
6770,-44.921875
6771,-44.921875
6772,-44.921875
6773,-44.921875
6774,-44.921875
6775,-44.921875
6776,-44.921875
6777,-41.015625
6778,-44.921875
6779,-41.015625
6780,-44.921875
6781,-44.921875
6782,-41.015625
6783,-48.828125
6784,-44.921875
6785,-44.921875
6786,-44.921875
6787,-44.921875
6788,-44.921875
6789,-44.921875
6790,-41.015625
6791,-44.921875
6792,-42.968750
6793,-44.921875
6794,-44.921875
6795,-44.921875
6796,-44.921875
6797,-44.921875
6798,-44.921875
6799,-46.875000
6800,-44.921875
6801,-44.921875
6802,-44.921875
6803,-44.921875
6804,-46.875000
6805,-44.921875
6806,-42.968750
6807,-44.921875
6808,-44.921875
6809,-44.921875
6810,-44.921875
6811,-44.921875
6812,-44.921875
6813,-44.921875
6814,-44.921875
6815,-44.921875
6816,-44.921875
6817,-44.921875
6818,-44.921875
6819,-44.921875
6820,-44.921875
6821,-44.921875
6822,-41.015625
6823,-44.921875
6824,-44.921875
6825,-41.015625
6826,-44.921875
6827,-46.875000
6828,-42.968750
6829,-46.875000
6830,-41.015625
6831,-52.734375
6832,-44.921875
6833,-44.921875
6834,-44.921875
6835,-41.015625
6836,-44.921875
6837,-44.921875
6838,-44.921875
6839,-44.921875
6840,-42.968750
6841,-44.921875
6842,-44.921875
6843,-44.921875
6844,-41.015625
6845,-44.921875
6846,-44.921875
6847,-44.921875
6848,-41.015625
6849,-44.921875
6850,-44.921875
6851,-44.921875
6852,-46.875000
6853,-44.921875
6854,-39.062500
6855,-44.921875
6856,-41.015625
6857,-46.875000
6858,-42.968750
6859,-41.015625
6860,-48.828125
6861,-44.921875
6862,-44.921875
6863,-41.015625
6864,-44.921875
6865,-44.921875
6866,-41.015625
6867,-44.921875
6868,-44.921875
6869,-42.968750
6870,-46.875000
6871,-44.921875
6872,-44.921875
6873,-44.921875
6874,-44.921875
6875,-46.875000
6876,-42.968750
6877,-41.015625
6878,-46.875000
6879,-42.968750
6880,-44.921875
6881,-44.921875
6882,-44.921875
6883,-46.875000
6884,-41.015625
6885,-46.875000
6886,-46.875000
6887,-44.921875
6888,-46.875000
6889,-44.921875
6890,-44.921875
6891,-44.921875
6892,-44.921875
6893,-48.828125
6894,-44.921875
6895,-46.875000
6896,-50.781250
6897,-44.921875
6898,-46.875000
6899,-46.875000
6900,-44.921875
6901,-46.875000
6902,-42.968750
6903,-50.781250
6904,-62.500000
6905,-48.828125
6906,-48.828125
6907,-46.875000
6908,-48.828125
6909,-46.875000
6910,-48.828125
6911,-46.875000
6912,-44.921875
6913,-50.781250
6914,-44.921875
6915,-48.828125
6916,-46.875000
6917,-46.875000
6918,-44.921875
6919,-44.921875
6920,-48.828125
6921,-48.828125
6922,-46.875000
6923,-48.828125
6924,-44.921875
6925,-44.921875
6926,-44.921875
6927,-44.921875
6928,-44.921875
6929,-46.875000
6930,-44.921875
6931,-44.921875
6932,-41.015625
6933,-44.921875
6934,-44.921875
6935,-44.921875
6936,-44.921875
6937,-46.875000
6938,-44.921875
6939,-44.921875
6940,-46.875000
6941,-48.828125
6942,-44.921875
6943,-44.921875
6944,-46.875000
6945,-46.875000
6946,-44.921875
6947,-46.875000
6948,-44.921875
6949,-50.781250
6950,-46.875000
6951,-46.875000
6952,-48.828125
6953,-46.875000
6954,-50.781250
6955,-48.828125
6956,-50.781250
6957,-48.828125
6958,-48.828125
6959,-52.734375
6960,-48.828125
6961,-48.828125
6962,-52.734375
6963,-50.781250
6964,-52.734375
6965,-52.734375
6966,-48.828125
6967,-52.734375
6968,-35.156250
6969,-50.781250
6970,-52.734375
6971,-50.781250
6972,-54.687500
6973,-48.828125
6974,-52.734375
6975,-54.687500
6976,-48.828125
6977,-54.687500
6978,-54.687500
6979,-54.687500
6980,-54.687500
6981,-50.781250
6982,-54.687500
6983,-54.687500
6984,-48.828125
6985,-54.687500
6986,-54.687500
6987,-50.781250
6988,-56.640625
6989,-50.781250
6990,-54.687500
6991,-54.687500
6992,-54.687500
6993,-56.640625
6994,-52.734375
6995,-54.687500
6996,-56.640625
6997,-52.734375
6998,-54.687500
6999,-54.687500
7000,-41.015625
7001,-54.687500
7002,-56.640625
7003,-56.640625
7004,-56.640625
7005,-56.640625
7006,-56.640625
7007,-56.640625
7008,-56.640625
7009,-56.640625
7010,-60.546875
7011,-54.687500
7012,-56.640625
7013,-56.640625
7014,-54.687500
7015,-56.640625
7016,-56.640625
7017,-56.640625
7018,-60.546875
7019,-56.640625
7020,-56.640625
7021,-56.640625
7022,-56.640625
7023,-60.546875
7024,-60.546875
7025,-56.640625
7026,-56.640625
7027,-56.640625
7028,-56.640625
7029,-56.640625
7030,-60.546875
7031,-56.640625
7032,-52.734375
7033,-58.593750
7034,-56.640625
7035,-58.593750
7036,-56.640625
7037,-56.640625
7038,-60.546875
7039,-60.546875
7040,-52.734375
7041,-60.546875
7042,-56.640625
7043,-60.546875
7044,-56.640625
7045,-56.640625
7046,-60.546875
7047,-56.640625
7048,-60.546875
7049,-56.640625
7050,-60.546875
7051,-56.640625
7052,-54.687500
7053,-60.546875
7054,-60.546875
7055,-64.453125
7056,-60.546875
7057,-56.640625
7058,-56.640625
7059,-60.546875
7060,-60.546875
7061,-62.500000
7062,-60.546875
7063,-60.546875
7064,-56.640625
7065,-60.546875
7066,-60.546875
7067,-60.546875
7068,-60.546875
7069,-62.500000
7070,-60.546875
7071,-60.546875
7072,-60.546875
7073,-60.546875
7074,-60.546875
7075,-60.546875
7076,-62.500000
7077,-60.546875
7078,-62.500000
7079,-62.500000
7080,-62.500000
7081,-60.546875
7082,-60.546875
7083,-56.640625
7084,-60.546875
7085,-60.546875
7086,-60.546875
7087,-64.453125
7088,-60.546875
7089,-62.500000
7090,-62.500000
7091,-60.546875
7092,-62.500000
7093,-60.546875
7094,-62.500000
7095,-60.546875
7096,-64.453125
7097,-62.500000
7098,-60.546875
7099,-62.500000
7100,-62.500000
7101,-62.500000
7102,-64.453125
7103,-62.500000
7104,-62.500000
7105,-64.453125
7106,-58.593750
7107,-62.500000
7108,-60.546875
7109,-60.546875
7110,-62.500000
7111,-60.546875
7112,-62.500000
7113,-60.546875
7114,-50.781250
7115,-60.546875
7116,-60.546875
7117,-62.500000
7118,-62.500000
7119,-60.546875
7120,-62.500000
7121,-60.546875
7122,-62.500000
7123,-62.500000
7124,-60.546875
7125,-64.453125
7126,-60.546875
7127,-62.500000
7128,-64.453125
7129,-60.546875
7130,-60.546875
7131,-60.546875
7132,-60.546875
7133,-62.500000
7134,-62.500000
7135,-62.500000
7136,-64.453125
7137,-66.406250
7138,-62.500000
7139,-60.546875
7140,-60.546875
7141,-62.500000
7142,-60.546875
7143,-64.453125
7144,-62.500000
7145,-62.500000
7146,-60.546875
7147,-60.546875
7148,-62.500000
7149,-60.546875
7150,-60.546875
7151,-60.546875
7152,-64.453125
7153,-62.500000
7154,-60.546875
7155,-64.453125
7156,-60.546875
7157,-62.500000
7158,-60.546875
7159,-64.453125
7160,-64.453125
7161,-60.546875
7162,-62.500000
7163,-64.453125
7164,-52.734375
7165,-68.359375
7166,-60.546875
7167,-64.453125
7168,-64.453125
7169,-60.546875
7170,-62.500000
7171,-60.546875
7172,-62.500000
7173,-64.453125
7174,-60.546875
7175,-60.546875
7176,-62.500000
7177,-60.546875
7178,-60.546875
7179,-62.500000
7180,-60.546875
7181,-62.500000
7182,-62.500000
7183,-64.453125
7184,-62.500000
7185,-60.546875
7186,-62.500000
7187,-62.500000
7188,-60.546875
7189,-64.453125
7190,-60.546875
7191,-56.640625
7192,-60.546875
7193,-62.500000
7194,-60.546875
7195,-60.546875
7196,-62.500000
7197,-60.546875
7198,-62.500000
7199,-62.500000
7200,-60.546875
7201,-64.453125
7202,-60.546875
7203,-60.546875
7204,-62.500000
7205,-58.593750
7206,-62.500000
7207,-60.546875
7208,-60.546875
7209,-60.546875
7210,-66.406250
7211,-62.500000
7212,-60.546875
7213,-62.500000
7214,-62.500000
7215,-60.546875
7216,-62.500000
7217,-60.546875
7218,-60.546875
7219,-60.546875
7220,-60.546875
7221,-60.546875
7222,-60.546875
7223,-60.546875
7224,-60.546875
7225,-60.546875
7226,-62.500000
7227,-60.546875
7228,-60.546875
7229,-62.500000
7230,-60.546875
7231,-60.546875
7232,-60.546875
7233,-60.546875
7234,-60.546875
7235,-58.593750
7236,-60.546875
7237,-60.546875
7238,-60.546875
7239,-60.546875
7240,-60.546875
7241,-60.546875
7242,-60.546875
7243,-60.546875
7244,-60.546875
7245,-58.593750
7246,-60.546875
7247,-60.546875
7248,-58.593750
7249,-62.500000
7250,-60.546875
7251,-58.593750
7252,-62.500000
7253,-56.640625
7254,-60.546875
7255,-58.593750
7256,-60.546875
7257,-60.546875
7258,-60.546875
7259,-60.546875
7260,-60.546875
7261,-60.546875
7262,-60.546875
7263,-58.593750
7264,-60.546875
7265,-56.640625
7266,-56.640625
7267,-60.546875
7268,-60.546875
7269,-60.546875
7270,-56.640625
7271,-60.546875
7272,-62.500000
7273,-60.546875
7274,-62.500000
7275,-60.546875
7276,-58.593750
7277,-60.546875
7278,-60.546875
7279,-60.546875
7280,-56.640625
7281,-58.593750
7282,-60.546875
7283,-56.640625
7284,-60.546875
7285,-60.546875
7286,-58.593750
7287,-60.546875
7288,-60.546875
7289,-60.546875
7290,-60.546875
7291,-60.546875
7292,-60.546875
7293,-60.546875
7294,-60.546875
7295,-60.546875
7296,-60.546875
7297,-60.546875
7298,-60.546875
7299,-60.546875
7300,-60.546875
7301,-60.546875
7302,-60.546875
7303,-58.593750
7304,-60.546875
7305,-62.500000
7306,-56.640625
7307,-60.546875
7308,-60.546875
7309,-58.593750
7310,-58.593750
7311,-62.500000
7312,-62.500000
7313,-60.546875
7314,-60.546875
7315,-60.546875
7316,-56.640625
7317,-62.500000
7318,-64.453125
7319,-58.593750
7320,-60.546875
7321,-56.640625
7322,-60.546875
7323,-62.500000
7324,-56.640625
7325,-62.500000
7326,-56.640625
7327,-58.593750
7328,-60.546875
7329,-56.640625
7330,-60.546875
7331,-60.546875
7332,-60.546875
7333,-56.640625
7334,-60.546875
7335,-60.546875
7336,-56.640625
7337,-62.500000
7338,-56.640625
7339,-58.593750
7340,-60.546875
7341,-60.546875
7342,-58.593750
7343,-56.640625
7344,-56.640625
7345,-54.687500
7346,-56.640625
7347,-52.734375
7348,-52.734375
7349,-52.734375
7350,-54.687500
7351,-52.734375
7352,-56.640625
7353,-50.781250
7354,-48.828125
7355,-52.734375
7356,-48.828125
7357,-50.781250
7358,-48.828125
7359,-48.828125
7360,-48.828125
7361,-46.875000
7362,-48.828125
7363,-46.875000
7364,-48.828125
7365,-48.828125
7366,-46.875000
7367,-46.875000
7368,-46.875000
7369,-44.921875
7370,-39.062500
7371,-44.921875
7372,-46.875000
7373,-46.875000
7374,-44.921875
7375,-46.875000
7376,-44.921875
7377,-44.921875
7378,-46.875000
7379,-42.968750
7380,-44.921875
7381,-46.875000
7382,-44.921875
7383,-46.875000
7384,-44.921875
7385,-46.875000
7386,-44.921875
7387,-44.921875
7388,-48.828125
7389,-41.015625
7390,-46.875000
7391,-44.921875
7392,-44.921875
7393,-46.875000
7394,-42.968750
7395,-44.921875
7396,-44.921875
7397,-44.921875
7398,-46.875000
7399,-44.921875
7400,-44.921875
7401,-42.968750
7402,-54.687500
7403,-41.015625
7404,-44.921875
7405,-44.921875
7406,-44.921875
7407,-46.875000
7408,-44.921875
7409,-44.921875
7410,-48.828125
7411,-44.921875
7412,-44.921875
7413,-44.921875
7414,-44.921875
7415,-44.921875
7416,-44.921875
7417,-44.921875
7418,-44.921875
7419,-42.968750
7420,-46.875000
7421,-44.921875
7422,-46.875000
7423,-41.015625
7424,-41.015625
7425,-46.875000
7426,-44.921875
7427,-44.921875
7428,-44.921875
7429,-44.921875
7430,-44.921875
7431,-44.921875
7432,-41.015625
7433,-44.921875
7434,-44.921875
7435,-41.015625
7436,-46.875000
7437,-42.968750
7438,-44.921875
7439,-44.921875
7440,-42.968750
7441,-44.921875
7442,-44.921875
7443,-44.921875
7444,-44.921875
7445,-42.968750
7446,-52.734375
7447,-44.921875
7448,-48.828125
7449,-44.921875
7450,-44.921875
7451,-44.921875
7452,-44.921875
7453,-41.015625
7454,-44.921875
7455,-44.921875
7456,-44.921875
7457,-44.921875
7458,-44.921875
7459,-46.875000
7460,-42.968750
7461,-46.875000
7462,-44.921875
7463,-44.921875
7464,-44.921875
7465,-42.968750
7466,-44.921875
7467,-41.015625
7468,-44.921875
7469,-46.875000
7470,-44.921875
7471,-46.875000
7472,-42.968750
7473,-44.921875
7474,-44.921875
7475,-44.921875
7476,-44.921875
7477,-44.921875
7478,-41.015625
7479,-46.875000
7480,-41.015625
7481,-44.921875
7482,-44.921875
7483,-44.921875
7484,-44.921875
7485,-44.921875
7486,-44.921875
7487,-44.921875
7488,-44.921875
7489,-44.921875
7490,-41.015625
7491,-44.921875
7492,-44.921875
7493,-44.921875
7494,-44.921875
7495,-41.015625
7496,-44.921875
7497,-41.015625
7498,-44.921875
7499,-44.921875
7500,-44.921875
7501,-46.875000
7502,-44.921875
7503,-44.921875
7504,-44.921875
7505,-44.921875
7506,-46.875000
7507,-44.921875
7508,-44.921875
7509,-44.921875
7510,-44.921875
7511,-44.921875
7512,-44.921875
7513,-42.968750
7514,-44.921875
7515,-44.921875
7516,-44.921875
7517,-48.828125
7518,-44.921875
7519,-46.875000
7520,-44.921875
7521,-41.015625
7522,-44.921875
7523,-44.921875
7524,-44.921875
7525,-44.921875
7526,-44.921875
7527,-44.921875
7528,-44.921875
7529,-44.921875
7530,-44.921875
7531,-44.921875
7532,-44.921875
7533,-42.968750
7534,-44.921875
7535,-44.921875
7536,-44.921875
7537,-46.875000
7538,-44.921875
7539,-44.921875
7540,-46.875000
7541,-42.968750
7542,-44.921875
7543,-41.015625
7544,-46.875000
7545,-44.921875
7546,-42.968750
7547,-44.921875
7548,-44.921875
7549,-46.875000
7550,-44.921875
7551,-44.921875
7552,-46.875000
7553,-44.921875
7554,-46.875000
7555,-44.921875
7556,-46.875000
7557,-44.921875
7558,-41.015625
7559,-44.921875
7560,-44.921875
7561,-44.921875
7562,-44.921875
7563,-44.921875
7564,-46.875000
7565,-44.921875
7566,-44.921875
7567,-48.828125
7568,-42.968750
7569,-44.921875
7570,-44.921875
7571,-44.921875
7572,-44.921875
7573,-44.921875
7574,-44.921875
7575,-44.921875
7576,-44.921875
7577,-44.921875
7578,-44.921875
7579,-44.921875
7580,-46.875000
7581,-41.015625
7582,-41.015625
7583,-44.921875
7584,-44.921875
7585,-50.781250
7586,-44.921875
7587,-44.921875
7588,-44.921875
7589,-41.015625
7590,-46.875000
7591,-44.921875
7592,-44.921875
7593,-44.921875
7594,-41.015625
7595,-46.875000
7596,-42.968750
7597,-44.921875
7598,-44.921875
7599,-42.968750
7600,-46.875000
7601,-44.921875
7602,-46.875000
7603,-44.921875
7604,-44.921875
7605,-48.828125
7606,-44.921875
7607,-46.875000
7608,-46.875000
7609,-44.921875
7610,-46.875000
7611,-44.921875
7612,-44.921875
7613,-46.875000
7614,-44.921875
7615,-46.875000
7616,-44.921875
7617,-44.921875
7618,-44.921875
7619,-44.921875
7620,-46.875000
7621,-44.921875
7622,-41.015625
7623,-44.921875
7624,-46.875000
7625,-44.921875
7626,-42.968750
7627,-44.921875
7628,-44.921875
7629,-44.921875
7630,-68.359375
7631,-44.921875
7632,-44.921875
7633,-46.875000
7634,-46.875000
7635,-44.921875
7636,-44.921875
7637,-44.921875
7638,-44.921875
7639,-44.921875
7640,-44.921875
7641,-44.921875
7642,-44.921875
7643,-44.921875
7644,-39.062500
7645,-46.875000
7646,-44.921875
7647,-41.015625
7648,-46.875000
7649,-42.968750
7650,-46.875000
7651,-41.015625
7652,-46.875000
7653,-44.921875
7654,-44.921875
7655,-44.921875
7656,-42.968750
7657,-48.828125
7658,-41.015625
7659,-44.921875
7660,-46.875000
7661,-44.921875
7662,-44.921875
7663,-41.015625
7664,-44.921875
7665,-46.875000
7666,-41.015625
7667,-44.921875
7668,-44.921875
7669,-41.015625
7670,-44.921875
7671,-41.015625
7672,-48.828125
7673,-44.921875
7674,-41.015625
7675,-44.921875
7676,-41.015625
7677,-42.968750
7678,-46.875000
7679,-41.015625
7680,-44.921875
7681,-48.828125
7682,-41.015625
7683,-44.921875
7684,-42.968750
7685,-42.968750
7686,-44.921875
7687,-42.968750
7688,-44.921875
7689,-44.921875
7690,-42.968750
7691,-44.921875
7692,-44.921875
7693,-44.921875
7694,-44.921875
7695,-44.921875
7696,-44.921875
7697,-44.921875
7698,-44.921875
7699,-41.015625
7700,-44.921875
7701,-44.921875
7702,-41.015625
7703,-46.875000
7704,-44.921875
7705,-44.921875
7706,-41.015625
7707,-44.921875
7708,-41.015625
7709,-44.921875
7710,-44.921875
7711,-44.921875
7712,-44.921875
7713,-44.921875
7714,-44.921875
7715,-42.968750
7716,-44.921875
7717,-44.921875
7718,-44.921875
7719,-44.921875
7720,-44.921875
7721,-46.875000
7722,-44.921875
7723,-48.828125
7724,-44.921875
7725,-41.015625
7726,-44.921875
7727,-41.015625
7728,-44.921875
7729,-44.921875
7730,-44.921875
7731,-46.875000
7732,-44.921875
7733,-44.921875
7734,-44.921875
7735,-68.359375
7736,-48.828125
7737,-44.921875
7738,-44.921875
7739,-42.968750
7740,-44.921875
7741,-42.968750
7742,-41.015625
7743,-44.921875
7744,-41.015625
7745,-44.921875
7746,-44.921875
7747,-42.968750
7748,-46.875000
7749,-44.921875
7750,-46.875000
7751,-44.921875
7752,-44.921875
7753,-44.921875
7754,-44.921875
7755,-44.921875
7756,-44.921875
7757,-44.921875
7758,-44.921875
7759,-44.921875
7760,-44.921875
7761,-44.921875
7762,-41.015625
7763,-46.875000
7764,-41.015625
7765,-41.015625
7766,-44.921875
7767,-41.015625
7768,-44.921875
7769,-44.921875
7770,-44.921875
7771,-44.921875
7772,-39.062500
7773,-44.921875
7774,-41.015625
7775,-41.015625
7776,-41.015625
7777,-41.015625
7778,-44.921875
7779,-44.921875
7780,-44.921875
7781,-44.921875
7782,-41.015625
7783,-44.921875
7784,-42.968750
7785,-41.015625
7786,-44.921875
7787,-41.015625
7788,-44.921875
7789,-44.921875
7790,-41.015625
7791,-46.875000
7792,-25.390625
7793,-42.968750
7794,-44.921875
7795,-46.875000
7796,-44.921875
7797,-42.968750
7798,-44.921875
7799,-44.921875
7800,-41.015625
7801,-44.921875
7802,-41.015625
7803,-44.921875
7804,-44.921875
7805,-44.921875
7806,-44.921875
7807,-41.015625
7808,-42.968750
7809,-41.015625
7810,-44.921875
7811,-44.921875
7812,-42.968750
7813,-44.921875
7814,-44.921875
7815,-44.921875
7816,-44.921875
7817,-42.968750
7818,-41.015625
7819,-44.921875
7820,-42.968750
7821,-44.921875
7822,-46.875000
7823,-44.921875
7824,-44.921875
7825,-41.015625
7826,-44.921875
7827,-46.875000
7828,-44.921875
7829,-44.921875
7830,-42.968750
7831,-44.921875
7832,-41.015625
7833,-44.921875
7834,-44.921875
7835,-41.015625
7836,-39.062500
7837,-42.968750
7838,-41.015625
7839,-41.015625
7840,-41.015625
7841,-42.968750
7842,-41.015625
7843,-41.015625
7844,-44.921875
7845,-41.015625
7846,-41.015625
7847,-41.015625
7848,-44.921875
7849,-44.921875
7850,-41.015625
7851,-44.921875
7852,-41.015625
7853,-44.921875
7854,-44.921875
7855,-41.015625
7856,-44.921875
7857,-42.968750
7858,-44.921875
7859,-46.875000
7860,-41.015625
7861,-44.921875
7862,-41.015625
7863,-44.921875
7864,-41.015625
7865,-44.921875
7866,-41.015625
7867,-41.015625
7868,-35.156250
7869,-44.921875
7870,-44.921875
7871,-41.015625
7872,-44.921875
7873,-42.968750
7874,-44.921875
7875,-42.968750
7876,-44.921875
7877,-44.921875
7878,-42.968750
7879,-44.921875
7880,-42.968750
7881,-44.921875
7882,-41.015625
7883,-44.921875
7884,-44.921875
7885,-41.015625
7886,-44.921875
7887,-44.921875
7888,-42.968750
7889,-44.921875
7890,-42.968750
7891,-44.921875
7892,-41.015625
7893,-41.015625
7894,-44.921875
7895,-44.921875
7896,-41.015625
7897,-44.921875
7898,-44.921875
7899,-44.921875
7900,-44.921875
7901,-44.921875
7902,-46.875000
7903,-48.828125
7904,-41.015625
7905,-46.875000
7906,-48.828125
7907,-42.968750
7908,-44.921875
7909,-42.968750
7910,-44.921875
7911,-44.921875
7912,-41.015625
7913,-44.921875
7914,-44.921875
7915,-44.921875
7916,-44.921875
7917,-41.015625
7918,-46.875000
7919,-41.015625
7920,-44.921875
7921,-44.921875
7922,-41.015625
7923,-48.828125
7924,-42.968750
7925,-44.921875
7926,-46.875000
7927,-44.921875
7928,-44.921875
7929,-44.921875
7930,-46.875000
7931,-46.875000
7932,-41.015625
7933,-48.828125
7934,-46.875000
7935,-48.828125
7936,-48.828125
7937,-46.875000
7938,-44.921875
7939,-50.781250
7940,-48.828125
7941,-50.781250
7942,-48.828125
7943,-50.781250
7944,-52.734375
7945,-48.828125
7946,-41.015625
7947,-52.734375
7948,-52.734375
7949,-52.734375
7950,-50.781250
7951,-54.687500
7952,-54.687500
7953,-54.687500
7954,-56.640625
7955,-50.781250
7956,-56.640625
7957,-54.687500
7958,-54.687500
7959,-56.640625
7960,-54.687500
7961,-60.546875
7962,-54.687500
7963,-56.640625
7964,-56.640625
7965,-56.640625
7966,-56.640625
7967,-56.640625
7968,-56.640625
7969,-56.640625
7970,-56.640625
7971,-56.640625
7972,-56.640625
7973,-54.687500
7974,-56.640625
7975,-56.640625
7976,-54.687500
7977,-54.687500
7978,-56.640625
7979,-56.640625
7980,-54.687500
7981,-56.640625
7982,-56.640625
7983,-54.687500
7984,-56.640625
7985,-56.640625
7986,-60.546875
7987,-52.734375
7988,-56.640625
7989,-56.640625
7990,-56.640625
7991,-58.593750
7992,-56.640625
7993,-56.640625
7994,-60.546875
7995,-56.640625
7996,-54.687500
7997,-60.546875
7998,-60.546875
7999,-60.546875
8000,-56.640625
8001,-60.546875
8002,-58.593750
8003,-60.546875
8004,-58.593750
8005,-60.546875
8006,-56.640625
8007,-58.593750
8008,-60.546875
8009,-60.546875
8010,-54.687500
8011,-60.546875
8012,-60.546875
8013,-60.546875
8014,-60.546875
8015,-56.640625
8016,-56.640625
8017,-60.546875
8018,-56.640625
8019,-60.546875
8020,-60.546875
8021,-60.546875
8022,-56.640625
8023,-56.640625
8024,-58.593750
8025,-60.546875
8026,-60.546875
8027,-56.640625
8028,-60.546875
8029,-56.640625
8030,-56.640625
8031,-60.546875
8032,-56.640625
8033,-60.546875
8034,-58.593750
8035,-56.640625
8036,-56.640625
8037,-60.546875
8038,-60.546875
8039,-60.546875
8040,-58.593750
8041,-60.546875
8042,-60.546875
8043,-60.546875
8044,-60.546875
8045,-60.546875
8046,-60.546875
8047,-60.546875
8048,-58.593750
8049,-60.546875
8050,-56.640625
8051,-48.828125
8052,-60.546875
8053,-60.546875
8054,-60.546875
8055,-60.546875
8056,-62.500000
8057,-60.546875
8058,-62.500000
8059,-56.640625
8060,-60.546875
8061,-60.546875
8062,-60.546875
8063,-60.546875
8064,-60.546875
8065,-60.546875
8066,-62.500000
8067,-62.500000
8068,-62.500000
8069,-60.546875
8070,-62.500000
8071,-60.546875
8072,-60.546875
8073,-60.546875
8074,-60.546875
8075,-60.546875
8076,-60.546875
8077,-60.546875
8078,-60.546875
8079,-64.453125
8080,-60.546875
8081,-60.546875
8082,-60.546875
8083,-60.546875
8084,-60.546875
8085,-60.546875
8086,-60.546875
8087,-62.500000
8088,-60.546875
8089,-60.546875
8090,-60.546875
8091,-60.546875
8092,-62.500000
8093,-60.546875
8094,-60.546875
8095,-60.546875
8096,-62.500000
8097,-64.453125
8098,-60.546875
8099,-64.453125
8100,-60.546875
8101,-60.546875
8102,-62.500000
8103,-60.546875
8104,-64.453125
8105,-60.546875
8106,-64.453125
8107,-64.453125
8108,-60.546875
8109,-60.546875
8110,-62.500000
8111,-64.453125
8112,-60.546875
8113,-64.453125
8114,-64.453125
8115,-60.546875
8116,-62.500000
8117,-60.546875
8118,-60.546875
8119,-62.500000
8120,-60.546875
8121,-62.500000
8122,-62.500000
8123,-60.546875
8124,-56.640625
8125,-60.546875
8126,-60.546875
8127,-60.546875
8128,-60.546875
8129,-62.500000
8130,-60.546875
8131,-60.546875
8132,-62.500000
8133,-62.500000
8134,-60.546875
8135,-62.500000
8136,-60.546875
8137,-64.453125
8138,-58.593750
8139,-62.500000
8140,-60.546875
8141,-60.546875
8142,-64.453125
8143,-60.546875
8144,-62.500000
8145,-62.500000
8146,-60.546875
8147,-56.640625
8148,-60.546875
8149,-60.546875
8150,-62.500000
8151,-62.500000
8152,-60.546875
8153,-64.453125
8154,-68.359375
8155,-60.546875
8156,-52.734375
8157,-60.546875
8158,-62.500000
8159,-60.546875
8160,-60.546875
8161,-64.453125
8162,-60.546875
8163,-62.500000
8164,-64.453125
8165,-62.500000
8166,-62.500000
8167,-60.546875
8168,-62.500000
8169,-62.500000
8170,-60.546875
8171,-64.453125
8172,-60.546875
8173,-60.546875
8174,-64.453125
8175,-58.593750
8176,-62.500000
8177,-62.500000
8178,-60.546875
8179,-60.546875
8180,-62.500000
8181,-60.546875
8182,-62.500000
8183,-62.500000
8184,-62.500000
8185,-62.500000
8186,-60.546875
8187,-60.546875
8188,-60.546875
8189,-60.546875
8190,-60.546875
8191,-60.546875
8192,-60.546875
8193,-62.500000
8194,-60.546875
8195,-62.500000
8196,-60.546875
8197,-60.546875
8198,-64.453125
8199,-60.546875
8200,-62.500000
8201,-64.453125
8202,-64.453125
8203,-60.546875
8204,-62.500000
8205,-62.500000
8206,-62.500000
8207,-60.546875
8208,-64.453125
8209,-60.546875
8210,-64.453125
8211,-60.546875
8212,-62.500000
8213,-60.546875
8214,-60.546875
8215,-64.453125
8216,-60.546875
8217,-60.546875
8218,-62.500000
8219,-62.500000
8220,-64.453125
8221,-60.546875
8222,-62.500000
8223,-60.546875
8224,-60.546875
8225,-66.406250
8226,-60.546875
8227,-62.500000
8228,-60.546875
8229,-60.546875
8230,-60.546875
8231,-60.546875
8232,-60.546875
8233,-62.500000
8234,-60.546875
8235,-60.546875
8236,-62.500000
8237,-60.546875
8238,-64.453125
8239,-58.593750
8240,-60.546875
8241,-60.546875
8242,-60.546875
8243,-62.500000
8244,-60.546875
8245,-62.500000
8246,-60.546875
8247,-60.546875
8248,-62.500000
8249,-60.546875
8250,-60.546875
8251,-60.546875
8252,-60.546875
8253,-62.500000
8254,-60.546875
8255,-62.500000
8256,-60.546875
8257,-62.500000
8258,-64.453125
8259,-60.546875
8260,-62.500000
8261,-62.500000
8262,-62.500000
8263,-64.453125
8264,-60.546875
8265,-62.500000
8266,-62.500000
8267,-60.546875
8268,-62.500000
8269,-58.593750
8270,-60.546875
8271,-60.546875
8272,-60.546875
8273,-60.546875
8274,-60.546875
8275,-60.546875
8276,-62.500000
8277,-60.546875
8278,-60.546875
8279,-60.546875
8280,-56.640625
8281,-60.546875
8282,-58.593750
8283,-58.593750
8284,-64.453125
8285,-56.640625
8286,-62.500000
8287,-56.640625
8288,-56.640625
8289,-60.546875
8290,-56.640625
8291,-62.500000
8292,-56.640625
8293,-56.640625
8294,-56.640625
8295,-56.640625
8296,-64.453125
8297,-56.640625
8298,-56.640625
8299,-60.546875
8300,-56.640625
8301,-58.593750
8302,-56.640625
8303,-56.640625
8304,-56.640625
8305,-56.640625
8306,-56.640625
8307,-56.640625
8308,-56.640625
8309,-58.593750
8310,-54.687500
8311,-56.640625
8312,-56.640625
8313,-56.640625
8314,-56.640625
8315,-50.781250
8316,-54.687500
8317,-48.828125
8318,-50.781250
8319,-50.781250
8320,-48.828125
8321,-50.781250
8322,-48.828125
8323,-48.828125
8324,-48.828125
8325,-56.640625
8326,-44.921875
8327,-48.828125
8328,-48.828125
8329,-46.875000
8330,-46.875000
8331,-46.875000
8332,-46.875000
8333,-46.875000
8334,-46.875000
8335,-44.921875
8336,-44.921875
8337,-46.875000
8338,-44.921875
8339,-41.015625
8340,-42.968750
8341,-44.921875
8342,-44.921875
8343,-44.921875
8344,-44.921875
8345,-41.015625
8346,-46.875000
8347,-44.921875
8348,-44.921875
8349,-46.875000
8350,-44.921875
8351,-46.875000
8352,-44.921875
8353,-44.921875
8354,-46.875000
8355,-46.875000
8356,-44.921875
8357,-48.828125
8358,-44.921875
8359,-46.875000
8360,-44.921875
8361,-46.875000
8362,-46.875000
8363,-44.921875
8364,-46.875000
8365,-44.921875
8366,-46.875000
8367,-50.781250
8368,-44.921875
8369,-48.828125
8370,-35.156250
8371,-44.921875
8372,-44.921875
8373,-44.921875
8374,-44.921875
8375,-44.921875
8376,-44.921875
8377,-44.921875
8378,-44.921875
8379,-46.875000
8380,-46.875000
8381,-44.921875
8382,-44.921875
8383,-44.921875
8384,-46.875000
8385,-41.015625
8386,-44.921875
8387,-44.921875
8388,-44.921875
8389,-46.875000
8390,-46.875000
8391,-44.921875
8392,-44.921875
8393,-44.921875
8394,-46.875000
8395,-46.875000
8396,-42.968750
8397,-48.828125
8398,-44.921875
8399,-48.828125
8400,-41.015625
8401,-44.921875
8402,-44.921875
8403,-48.828125
8404,-44.921875
8405,-44.921875
8406,-46.875000
8407,-42.968750
8408,-46.875000
8409,-44.921875
8410,-41.015625
8411,-46.875000
8412,-44.921875
8413,-46.875000
8414,-46.875000
8415,-48.828125
8416,-46.875000
8417,-44.921875
8418,-44.921875
8419,-44.921875
8420,-41.015625
8421,-46.875000
8422,-44.921875
8423,-44.921875
8424,-44.921875
8425,-44.921875
8426,-44.921875
8427,-44.921875
8428,-44.921875
8429,-42.968750
8430,-46.875000
8431,-41.015625
8432,-44.921875
8433,-44.921875
8434,-44.921875
8435,-42.968750
8436,-44.921875
8437,-44.921875
8438,-44.921875
8439,-44.921875
8440,-46.875000
8441,-44.921875
8442,-44.921875
8443,-46.875000
8444,-41.015625
8445,-44.921875
8446,-42.968750
8447,-44.921875
8448,-44.921875
8449,-44.921875
8450,-46.875000
8451,-42.968750
8452,-44.921875
8453,-44.921875
8454,-44.921875
8455,-46.875000
8456,-42.968750
8457,-44.921875
8458,-44.921875
8459,-41.015625
8460,-44.921875
8461,-44.921875
8462,-44.921875
8463,-46.875000
8464,-44.921875
8465,-44.921875
8466,-44.921875
8467,-44.921875
8468,-44.921875
8469,-44.921875
8470,-41.015625
8471,-44.921875
8472,-44.921875
8473,-46.875000
8474,-44.921875
8475,-46.875000
8476,-44.921875
8477,-44.921875
8478,-46.875000
8479,-42.968750
8480,-44.921875
8481,-44.921875
8482,-44.921875
8483,-44.921875
8484,-42.968750
8485,-42.968750
8486,-44.921875
8487,-44.921875
8488,-46.875000
8489,-46.875000
8490,-44.921875
8491,-46.875000
8492,-44.921875
8493,-46.875000
8494,-41.015625
8495,-44.921875
8496,-46.875000
8497,-44.921875
8498,-46.875000
8499,-44.921875
8500,-46.875000
8501,-44.921875
8502,-44.921875
8503,-46.875000
8504,-44.921875
8505,-44.921875
8506,-44.921875
8507,-44.921875
8508,-48.828125
8509,-44.921875
8510,-46.875000
8511,-50.781250
8512,-44.921875
8513,-44.921875
8514,-48.828125
8515,-44.921875
8516,-46.875000
8517,-46.875000
8518,-44.921875
8519,-44.921875
8520,-44.921875
8521,-46.875000
8522,-41.015625
8523,-44.921875
8524,-48.828125
8525,-44.921875
8526,-50.781250
8527,-44.921875
8528,-46.875000
8529,-44.921875
8530,-44.921875
8531,-46.875000
8532,-44.921875
8533,-44.921875
8534,-44.921875
8535,-41.015625
8536,-41.015625
8537,-44.921875
8538,-41.015625
8539,-46.875000
8540,-44.921875
8541,-44.921875
8542,-44.921875
8543,-44.921875
8544,-46.875000
8545,-44.921875
8546,-44.921875
8547,-44.921875
8548,-44.921875
8549,-46.875000
8550,-41.015625
8551,-46.875000
8552,-41.015625
8553,-46.875000
8554,-46.875000
8555,-44.921875
8556,-46.875000
8557,-48.828125
8558,-44.921875
8559,-46.875000
8560,-44.921875
8561,-44.921875
8562,-46.875000
8563,-48.828125
8564,-46.875000
8565,-46.875000
8566,-46.875000
8567,-44.921875
8568,-44.921875
8569,-48.828125
8570,-44.921875
8571,-46.875000
8572,-44.921875
8573,-44.921875
8574,-46.875000
8575,-44.921875
8576,-46.875000
8577,-44.921875
8578,-41.015625
8579,-46.875000
8580,-44.921875
8581,-44.921875
8582,-46.875000
8583,-44.921875
8584,-46.875000
8585,-46.875000
8586,-41.015625
8587,-44.921875
8588,-46.875000
8589,-44.921875
8590,-46.875000
8591,-44.921875
8592,-46.875000
8593,-44.921875
8594,-46.875000
8595,-44.921875
8596,-44.921875
8597,-46.875000
8598,-44.921875
8599,-42.968750
8600,-46.875000
8601,-44.921875
8602,-44.921875
8603,-46.875000
8604,-44.921875
8605,-44.921875
8606,-46.875000
8607,-44.921875
8608,-44.921875
8609,-46.875000
8610,-44.921875
8611,-46.875000
8612,-46.875000
8613,-44.921875
8614,-48.828125
8615,-44.921875
8616,-48.828125
8617,-44.921875
8618,-44.921875
8619,-46.875000
8620,-44.921875
8621,-44.921875
8622,-46.875000
8623,-46.875000
8624,-46.875000
8625,-46.875000
8626,-44.921875
8627,-48.828125
8628,-44.921875
8629,-46.875000
8630,-46.875000
8631,-50.781250
8632,-46.875000
8633,-44.921875
8634,-46.875000
8635,-44.921875
8636,-46.875000
8637,-44.921875
8638,-44.921875
8639,-46.875000
8640,-44.921875
8641,-44.921875
8642,-44.921875
8643,-44.921875
8644,-44.921875
8645,-44.921875
8646,-44.921875
8647,-44.921875
8648,-44.921875
8649,-44.921875
8650,-44.921875
8651,-46.875000
8652,-41.015625
8653,-46.875000
8654,-44.921875
8655,-44.921875
8656,-46.875000
8657,-44.921875
8658,-46.875000
8659,-44.921875
8660,-44.921875
8661,-44.921875
8662,-44.921875
8663,-44.921875
8664,-46.875000
8665,-44.921875
8666,-44.921875
8667,-44.921875
8668,-44.921875
8669,-44.921875
8670,-44.921875
8671,-46.875000
8672,-41.015625
8673,-41.015625
8674,-46.875000
8675,-41.015625
8676,-46.875000
8677,-44.921875
8678,-39.062500
8679,-44.921875
8680,-44.921875
8681,-44.921875
8682,-44.921875
8683,-44.921875
8684,-44.921875
8685,-48.828125
8686,-44.921875
8687,-44.921875
8688,-44.921875
8689,-44.921875
8690,-46.875000
8691,-42.968750
8692,-46.875000
8693,-46.875000
8694,-44.921875
8695,-46.875000
8696,-46.875000
8697,-48.828125
8698,-44.921875
8699,-44.921875
8700,-46.875000
8701,-44.921875
8702,-46.875000
8703,-46.875000
8704,-44.921875
8705,-46.875000
8706,-44.921875
8707,-46.875000
8708,-42.968750
8709,-44.921875
8710,-46.875000
8711,-44.921875
8712,-46.875000
8713,-44.921875
8714,-44.921875
8715,-48.828125
8716,-44.921875
8717,-48.828125
8718,-46.875000
8719,-46.875000
8720,-48.828125
8721,-44.921875
8722,-46.875000
8723,-44.921875
8724,-44.921875
8725,-48.828125
8726,-44.921875
8727,-52.734375
8728,-46.875000
8729,-44.921875
8730,-44.921875
8731,-46.875000
8732,-44.921875
8733,-46.875000
8734,-44.921875
8735,-48.828125
8736,-39.062500
8737,-44.921875
8738,-46.875000
8739,-44.921875
8740,-46.875000
8741,-44.921875
8742,-46.875000
8743,-44.921875
8744,-46.875000
8745,-44.921875
8746,-46.875000
8747,-44.921875
8748,-46.875000
8749,-46.875000
8750,-44.921875
8751,-46.875000
8752,-44.921875
8753,-48.828125
8754,-44.921875
8755,-44.921875
8756,-46.875000
8757,-44.921875
8758,-41.015625
8759,-42.968750
8760,-44.921875
8761,-46.875000
8762,-44.921875
8763,-46.875000
8764,-44.921875
8765,-46.875000
8766,-46.875000
8767,-44.921875
8768,-56.640625
8769,-46.875000
8770,-44.921875
8771,-46.875000
8772,-46.875000
8773,-41.015625
8774,-44.921875
8775,-42.968750
8776,-44.921875
8777,-44.921875
8778,-44.921875
8779,-46.875000
8780,-44.921875
8781,-44.921875
8782,-44.921875
8783,-44.921875
8784,-46.875000
8785,-44.921875
8786,-44.921875
8787,-44.921875
8788,-44.921875
8789,-44.921875
8790,-44.921875
8791,-44.921875
8792,-48.828125
8793,-46.875000
8794,-44.921875
8795,-46.875000
8796,-46.875000
8797,-44.921875
8798,-46.875000
8799,-46.875000
8800,-46.875000
8801,-50.781250
8802,-44.921875
8803,-44.921875
8804,-48.828125
8805,-44.921875
8806,-48.828125
8807,-46.875000
8808,-46.875000
8809,-48.828125
8810,-44.921875
8811,-46.875000
8812,-48.828125
8813,-44.921875
8814,-44.921875
8815,-48.828125
8816,-44.921875
8817,-46.875000
8818,-44.921875
8819,-44.921875
8820,-44.921875
8821,-44.921875
8822,-48.828125
8823,-46.875000
8824,-44.921875
8825,-46.875000
8826,-46.875000
8827,-46.875000
8828,-44.921875
8829,-44.921875
8830,-46.875000
8831,-44.921875
8832,-48.828125
8833,-44.921875
8834,-44.921875
8835,-48.828125
8836,-44.921875
8837,-44.921875
8838,-46.875000
8839,-44.921875
8840,-44.921875
8841,-44.921875
8842,-44.921875
8843,-44.921875
8844,-44.921875
8845,-44.921875
8846,-44.921875
8847,-48.828125
8848,-44.921875
8849,-44.921875
8850,-46.875000
8851,-42.968750
8852,-44.921875
8853,-46.875000
8854,-44.921875
8855,-46.875000
8856,-44.921875
8857,-44.921875
8858,-46.875000
8859,-44.921875
8860,-46.875000
8861,-44.921875
8862,-44.921875
8863,-46.875000
8864,-44.921875
8865,-46.875000
8866,-46.875000
8867,-44.921875
8868,-44.921875
8869,-41.015625
8870,-44.921875
8871,-42.968750
8872,-41.015625
8873,-46.875000
8874,-42.968750
8875,-44.921875
8876,-44.921875
8877,-44.921875
8878,-44.921875
8879,-41.015625
8880,-44.921875
8881,-44.921875
8882,-41.015625
8883,-46.875000
8884,-44.921875
8885,-44.921875
8886,-46.875000
8887,-44.921875
8888,-46.875000
8889,-44.921875
8890,-44.921875
8891,-44.921875
8892,-41.015625
8893,-44.921875
8894,-44.921875
8895,-41.015625
8896,-44.921875
8897,-44.921875
8898,-44.921875
8899,-44.921875
8900,-44.921875
8901,-46.875000
8902,-44.921875
8903,-44.921875
8904,-41.015625
8905,-46.875000
8906,-41.015625
8907,-46.875000
8908,-44.921875
8909,-42.968750
8910,-44.921875
8911,-41.015625
8912,-46.875000
8913,-44.921875
8914,-41.015625
8915,-44.921875
8916,-44.921875
8917,-44.921875
8918,-44.921875
8919,-44.921875
8920,-44.921875
8921,-42.968750
8922,-41.015625
8923,-44.921875
8924,-41.015625
8925,-46.875000
8926,-44.921875
8927,-41.015625
8928,-44.921875
8929,-44.921875
8930,-41.015625
8931,-42.968750
8932,-42.968750
8933,-44.921875
8934,-46.875000
8935,-42.968750
8936,-44.921875
8937,-44.921875
8938,-44.921875
8939,-46.875000
8940,-44.921875
8941,-44.921875
8942,-46.875000
8943,-46.875000
8944,-44.921875
8945,-48.828125
8946,-46.875000
8947,-46.875000
8948,-48.828125
8949,-48.828125
8950,-48.828125
8951,-48.828125
8952,-48.828125
8953,-48.828125
8954,-52.734375
8955,-48.828125
8956,-50.781250
8957,-50.781250
8958,-52.734375
8959,-50.781250
8960,-64.453125
8961,-54.687500
8962,-52.734375
8963,-50.781250
8964,-54.687500
8965,-50.781250
8966,-54.687500
8967,-54.687500
8968,-48.828125
8969,-54.687500
8970,-52.734375
8971,-54.687500
8972,-50.781250
8973,-52.734375
8974,-54.687500
8975,-52.734375
8976,-54.687500
8977,-54.687500
8978,-52.734375
8979,-52.734375
8980,-54.687500
8981,-54.687500
8982,-56.640625
8983,-41.015625
8984,-50.781250
8985,-54.687500
8986,-52.734375
8987,-54.687500
8988,-54.687500
8989,-52.734375
8990,-56.640625
8991,-50.781250
8992,-56.640625
8993,-54.687500
8994,-54.687500
8995,-54.687500
8996,-52.734375
8997,-56.640625
8998,-52.734375
8999,-54.687500
9000,-54.687500
9001,-48.828125
9002,-54.687500
9003,-56.640625
9004,-56.640625
9005,-60.546875
9006,-56.640625
9007,-56.640625
9008,-56.640625
9009,-56.640625
9010,-56.640625
9011,-56.640625
9012,-58.593750
9013,-56.640625
9014,-56.640625
9015,-60.546875
9016,-56.640625
9017,-56.640625
9018,-60.546875
9019,-60.546875
9020,-60.546875
9021,-56.640625
9022,-60.546875
9023,-56.640625
9024,-56.640625
9025,-60.546875
9026,-56.640625
9027,-56.640625
9028,-60.546875
9029,-56.640625
9030,-56.640625
9031,-60.546875
9032,-56.640625
9033,-72.265625
9034,-56.640625
9035,-60.546875
9036,-60.546875
9037,-60.546875
9038,-56.640625
9039,-56.640625
9040,-60.546875
9041,-56.640625
9042,-60.546875
9043,-60.546875
9044,-60.546875
9045,-60.546875
9046,-60.546875
9047,-56.640625
9048,-60.546875
9049,-56.640625
9050,-60.546875
9051,-60.546875
9052,-58.593750
9053,-60.546875
9054,-60.546875
9055,-60.546875
9056,-60.546875
9057,-60.546875
9058,-62.500000
9059,-60.546875
9060,-60.546875
9061,-60.546875
9062,-60.546875
9063,-62.500000
9064,-60.546875
9065,-48.828125
9066,-60.546875
9067,-56.640625
9068,-60.546875
9069,-56.640625
9070,-60.546875
9071,-60.546875
9072,-58.593750
9073,-60.546875
9074,-60.546875
9075,-60.546875
9076,-60.546875
9077,-58.593750
9078,-60.546875
9079,-60.546875
9080,-60.546875
9081,-60.546875
9082,-56.640625
9083,-56.640625
9084,-58.593750
9085,-60.546875
9086,-56.640625
9087,-56.640625
9088,-62.500000
9089,-56.640625
9090,-56.640625
9091,-56.640625
9092,-56.640625
9093,-60.546875
9094,-56.640625
9095,-58.593750
9096,-60.546875
9097,-76.171875
9098,-60.546875
9099,-56.640625
9100,-56.640625
9101,-60.546875
9102,-56.640625
9103,-60.546875
9104,-56.640625
9105,-58.593750
9106,-60.546875
9107,-56.640625
9108,-56.640625
9109,-60.546875
9110,-56.640625
9111,-60.546875
9112,-56.640625
9113,-58.593750
9114,-60.546875
9115,-56.640625
9116,-60.546875
9117,-56.640625
9118,-56.640625
9119,-60.546875
9120,-56.640625
9121,-58.593750
9122,-56.640625
9123,-56.640625
9124,-60.546875
9125,-56.640625
9126,-56.640625
9127,-56.640625
9128,-56.640625
9129,-58.593750
9130,-56.640625
9131,-56.640625
9132,-54.687500
9133,-56.640625
9134,-56.640625
9135,-56.640625
9136,-54.687500
9137,-56.640625
9138,-56.640625
9139,-56.640625
9140,-56.640625
9141,-56.640625
9142,-56.640625
9143,-56.640625
9144,-56.640625
9145,-56.640625
9146,-56.640625
9147,-56.640625
9148,-54.687500
9149,-56.640625
9150,-54.687500
9151,-56.640625
9152,-46.875000
9153,-56.640625
9154,-52.734375
9155,-56.640625
9156,-56.640625
9157,-52.734375
9158,-56.640625
9159,-54.687500
9160,-56.640625
9161,-42.968750
9162,-54.687500
9163,-56.640625
9164,-54.687500
9165,-56.640625
9166,-56.640625
9167,-52.734375
9168,-56.640625
9169,-54.687500
9170,-56.640625
9171,-56.640625
9172,-54.687500
9173,-56.640625
9174,-54.687500
9175,-54.687500
9176,-56.640625
9177,-56.640625
9178,-54.687500
9179,-56.640625
9180,-52.734375
9181,-56.640625
9182,-56.640625
9183,-54.687500
9184,-56.640625
9185,-54.687500
9186,-56.640625
9187,-54.687500
9188,-54.687500
9189,-54.687500
9190,-56.640625
9191,-54.687500
9192,-56.640625
9193,-50.781250
9194,-54.687500
9195,-52.734375
9196,-56.640625
9197,-56.640625
9198,-50.781250
9199,-54.687500
9200,-54.687500
9201,-52.734375
9202,-56.640625
9203,-52.734375
9204,-52.734375
9205,-56.640625
9206,-54.687500
9207,-54.687500
9208,-54.687500
9209,-54.687500
9210,-52.734375
9211,-48.828125
9212,-48.828125
9213,-52.734375
9214,-50.781250
9215,-48.828125
9216,-48.828125
9217,-48.828125
9218,-48.828125
9219,-48.828125
9220,-48.828125
9221,-44.921875
9222,-46.875000
9223,-46.875000
9224,-46.875000
9225,-41.015625
9226,-48.828125
9227,-46.875000
9228,-44.921875
9229,-37.109375
9230,-44.921875
9231,-44.921875
9232,-46.875000
9233,-44.921875
9234,-41.015625
9235,-44.921875
9236,-44.921875
9237,-44.921875
9238,-44.921875
9239,-44.921875
9240,-44.921875
9241,-44.921875
9242,-44.921875
9243,-46.875000
9244,-44.921875
9245,-44.921875
9246,-44.921875
9247,-44.921875
9248,-44.921875
9249,-41.015625
9250,-44.921875
9251,-44.921875
9252,-44.921875
9253,-44.921875
9254,-42.968750
9255,-46.875000
9256,-41.015625
9257,-56.640625
9258,-41.015625
9259,-44.921875
9260,-44.921875
9261,-44.921875
9262,-44.921875
9263,-44.921875
9264,-44.921875
9265,-44.921875
9266,-44.921875
9267,-41.015625
9268,-46.875000
9269,-42.968750
9270,-46.875000
9271,-44.921875
9272,-41.015625
9273,-44.921875
9274,-44.921875
9275,-46.875000
9276,-42.968750
9277,-42.968750
9278,-46.875000
9279,-41.015625
9280,-44.921875
9281,-44.921875
9282,-44.921875
9283,-44.921875
9284,-44.921875
9285,-46.875000
9286,-44.921875
9287,-44.921875
9288,-44.921875
9289,-44.921875
9290,-41.015625
9291,-44.921875
9292,-41.015625
9293,-46.875000
9294,-44.921875
9295,-41.015625
9296,-41.015625
9297,-41.015625
9298,-42.968750
9299,-29.296875
9300,-44.921875
9301,-44.921875
9302,-41.015625
9303,-46.875000
9304,-44.921875
9305,-44.921875
9306,-44.921875
9307,-44.921875
9308,-44.921875
9309,-44.921875
9310,-44.921875
9311,-44.921875
9312,-41.015625
9313,-44.921875
9314,-44.921875
9315,-44.921875
9316,-44.921875
9317,-41.015625
9318,-46.875000
9319,-44.921875
9320,-44.921875
9321,-44.921875
9322,-44.921875
9323,-44.921875
9324,-44.921875
9325,-42.968750
9326,-44.921875
9327,-42.968750
9328,-44.921875
9329,-42.968750
9330,-41.015625
9331,-44.921875
9332,-44.921875
9333,-44.921875
9334,-44.921875
9335,-44.921875
9336,-44.921875
9337,-44.921875
9338,-44.921875
9339,-44.921875
9340,-44.921875
9341,-44.921875
9342,-42.968750
9343,-44.921875
9344,-44.921875
9345,-44.921875
9346,-44.921875
9347,-44.921875
9348,-44.921875
9349,-42.968750
9350,-44.921875
9351,-44.921875
9352,-44.921875
9353,-44.921875
9354,-44.921875
9355,-44.921875
9356,-46.875000
9357,-44.921875
9358,-44.921875
9359,-44.921875
9360,-44.921875
9361,-44.921875
9362,-41.015625
9363,-44.921875
9364,-44.921875
9365,-44.921875
9366,-46.875000
9367,-44.921875
9368,-44.921875
9369,-48.828125
9370,-44.921875
9371,-44.921875
9372,-46.875000
9373,-41.015625
9374,-46.875000
9375,-44.921875
9376,-44.921875
9377,-44.921875
9378,-44.921875
9379,-44.921875
9380,-42.968750
9381,-41.015625
9382,-44.921875
9383,-44.921875
9384,-46.875000
9385,-44.921875
9386,-44.921875
9387,-44.921875
9388,-42.968750
9389,-44.921875
9390,-44.921875
9391,-44.921875
9392,-44.921875
9393,-41.015625
9394,-44.921875
9395,-44.921875
9396,-44.921875
9397,-44.921875
9398,-44.921875
9399,-48.828125
9400,-44.921875
9401,-44.921875
9402,-41.015625
9403,-44.921875
9404,-46.875000
9405,-41.015625
9406,-46.875000
9407,-44.921875
9408,-44.921875
9409,-44.921875
9410,-41.015625
9411,-44.921875
9412,-41.015625
9413,-46.875000
9414,-46.875000
9415,-42.968750
9416,-44.921875
9417,-48.828125
9418,-44.921875
9419,-46.875000
9420,-42.968750
9421,-44.921875
9422,-46.875000
9423,-44.921875
9424,-46.875000
9425,-44.921875
9426,-44.921875
9427,-44.921875
9428,-44.921875
9429,-44.921875
9430,-44.921875
9431,-41.015625
9432,-44.921875
9433,-44.921875
9434,-44.921875
9435,-41.015625
9436,-44.921875
9437,-44.921875
9438,-46.875000
9439,-41.015625
9440,-44.921875
9441,-41.015625
9442,-41.015625
9443,-46.875000
9444,-41.015625
9445,-48.828125
9446,-44.921875
9447,-44.921875
9448,-44.921875
9449,-44.921875
9450,-46.875000
9451,-44.921875
9452,-44.921875
9453,-48.828125
9454,-44.921875
9455,-46.875000
9456,-44.921875
9457,-44.921875
9458,-44.921875
9459,-46.875000
9460,-44.921875
9461,-44.921875
9462,-44.921875
9463,-46.875000
9464,-44.921875
9465,-44.921875
9466,-46.875000
9467,-41.015625
9468,-44.921875
9469,-44.921875
9470,-48.828125
9471,-44.921875
9472,-44.921875
9473,-46.875000
9474,-44.921875
9475,-44.921875
9476,-46.875000
9477,-44.921875
9478,-46.875000
9479,-44.921875
9480,-44.921875
9481,-46.875000
9482,-44.921875
9483,-44.921875
9484,-50.781250
9485,-44.921875
9486,-44.921875
9487,-42.968750
9488,-46.875000
9489,-46.875000
9490,-44.921875
9491,-44.921875
9492,-44.921875
9493,-44.921875
9494,-46.875000
9495,-44.921875
9496,-44.921875
9497,-44.921875
9498,-44.921875
9499,-41.015625
9500,-44.921875
9501,-44.921875
9502,-46.875000
9503,-44.921875
9504,-44.921875
9505,-44.921875
9506,-46.875000
9507,-44.921875
9508,-44.921875
9509,-46.875000
9510,-44.921875
9511,-44.921875
9512,-46.875000
9513,-44.921875
9514,-44.921875
9515,-44.921875
9516,-44.921875
9517,-44.921875
9518,-44.921875
9519,-44.921875
9520,-46.875000
9521,-44.921875
9522,-44.921875
9523,-44.921875
9524,-44.921875
9525,-44.921875
9526,-44.921875
9527,-46.875000
9528,-44.921875
9529,-44.921875
9530,-46.875000
9531,-54.687500
9532,-44.921875
9533,-44.921875
9534,-44.921875
9535,-44.921875
9536,-42.968750
9537,-44.921875
9538,-44.921875
9539,-44.921875
9540,-46.875000
9541,-44.921875
9542,-44.921875
9543,-44.921875
9544,-44.921875
9545,-44.921875
9546,-44.921875
9547,-44.921875
9548,-46.875000
9549,-44.921875
9550,-46.875000
9551,-44.921875
9552,-48.828125
9553,-44.921875
9554,-44.921875
9555,-44.921875
9556,-46.875000
9557,-48.828125
9558,-44.921875
9559,-44.921875
9560,-46.875000
9561,-44.921875
9562,-44.921875
9563,-41.015625
9564,-44.921875
9565,-44.921875
9566,-44.921875
9567,-44.921875
9568,-48.828125
9569,-44.921875
9570,-44.921875
9571,-46.875000
9572,-42.968750
9573,-46.875000
9574,-44.921875
9575,-46.875000
9576,-44.921875
9577,-44.921875
9578,-44.921875
9579,-44.921875
9580,-44.921875
9581,-44.921875
9582,-42.968750
9583,-46.875000
9584,-44.921875
9585,-44.921875
9586,-46.875000
9587,-44.921875
9588,-46.875000
9589,-44.921875
9590,-44.921875
9591,-44.921875
9592,-44.921875
9593,-44.921875
9594,-44.921875
9595,-44.921875
9596,-44.921875
9597,-42.968750
9598,-44.921875
9599,-44.921875
9600,-44.921875
9601,-44.921875
9602,-44.921875
9603,-44.921875
9604,-33.203125
9605,-46.875000
9606,-44.921875
9607,-44.921875
9608,-44.921875
9609,-44.921875
9610,-44.921875
9611,-44.921875
9612,-44.921875
9613,-44.921875
9614,-44.921875
9615,-44.921875
9616,-44.921875
9617,-44.921875
9618,-41.015625
9619,-44.921875
9620,-44.921875
9621,-46.875000
9622,-44.921875
9623,-44.921875
9624,-44.921875
9625,-44.921875
9626,-44.921875
9627,-41.015625
9628,-39.062500
9629,-44.921875
9630,-41.015625
9631,-50.781250
9632,-44.921875
9633,-44.921875
9634,-44.921875
9635,-41.015625
9636,-41.015625
9637,-46.875000
9638,-44.921875
9639,-44.921875
9640,-44.921875
9641,-41.015625
9642,-48.828125
9643,-41.015625
9644,-44.921875
9645,-44.921875
9646,-44.921875
9647,-44.921875
9648,-41.015625
9649,-46.875000
9650,-44.921875
9651,-44.921875
9652,-46.875000
9653,-44.921875
9654,-44.921875
9655,-44.921875
9656,-44.921875
9657,-41.015625
9658,-44.921875
9659,-48.828125
9660,-44.921875
9661,-44.921875
9662,-44.921875
9663,-44.921875
9664,-44.921875
9665,-44.921875
9666,-44.921875
9667,-44.921875
9668,-46.875000
9669,-46.875000
9670,-41.015625
9671,-44.921875
9672,-44.921875
9673,-41.015625
9674,-44.921875
9675,-41.015625
9676,-44.921875
9677,-44.921875
9678,-44.921875
9679,-42.968750
9680,-44.921875
9681,-41.015625
9682,-44.921875
9683,-44.921875
9684,-44.921875
9685,-46.875000
9686,-41.015625
9687,-44.921875
9688,-44.921875
9689,-44.921875
9690,-44.921875
9691,-44.921875
9692,-44.921875
9693,-44.921875
9694,-46.875000
9695,-44.921875
9696,-44.921875
9697,-44.921875
9698,-44.921875
9699,-44.921875
9700,-56.640625
9701,-44.921875
9702,-44.921875
9703,-46.875000
9704,-44.921875
9705,-46.875000
9706,-44.921875
9707,-44.921875
9708,-44.921875
9709,-44.921875
9710,-46.875000
9711,-44.921875
9712,-44.921875
9713,-46.875000
9714,-44.921875
9715,-46.875000
9716,-44.921875
9717,-44.921875
9718,-44.921875
9719,-44.921875
9720,-44.921875
9721,-46.875000
9722,-44.921875
9723,-44.921875
9724,-44.921875
9725,-41.015625
9726,-44.921875
9727,-44.921875
9728,-44.921875
9729,-44.921875
9730,-41.015625
9731,-44.921875
9732,-41.015625
9733,-44.921875
9734,-44.921875
9735,-44.921875
9736,-44.921875
9737,-44.921875
9738,-41.015625
9739,-44.921875
9740,-44.921875
9741,-44.921875
9742,-44.921875
9743,-42.968750
9744,-44.921875
9745,-44.921875
9746,-44.921875
9747,-44.921875
9748,-44.921875
9749,-44.921875
9750,-41.015625
9751,-42.968750
9752,-44.921875
9753,-44.921875
9754,-44.921875
9755,-41.015625
9756,-44.921875
9757,-42.968750
9758,-44.921875
9759,-41.015625
9760,-44.921875
9761,-44.921875
9762,-46.875000
9763,-44.921875
9764,-44.921875
9765,-46.875000
9766,-41.015625
9767,-46.875000
9768,-42.968750
9769,-44.921875
9770,-44.921875
9771,-44.921875
9772,-44.921875
9773,-44.921875
9774,-44.921875
9775,-44.921875
9776,-44.921875
9777,-42.968750
9778,-44.921875
9779,-44.921875
9780,-44.921875
9781,-44.921875
9782,-41.015625
9783,-44.921875
9784,-41.015625
9785,-44.921875
9786,-41.015625
9787,-44.921875
9788,-46.875000
9789,-42.968750
9790,-46.875000
9791,-41.015625
9792,-44.921875
9793,-44.921875
9794,-44.921875
9795,-44.921875
9796,-46.875000
9797,-44.921875
9798,-42.968750
9799,-42.968750
9800,-44.921875
9801,-44.921875
9802,-44.921875
9803,-44.921875
9804,-44.921875
9805,-48.828125
9806,-42.968750
9807,-44.921875
9808,-46.875000
9809,-44.921875
9810,-46.875000
9811,-44.921875
9812,-44.921875
9813,-44.921875
9814,-56.640625
9815,-46.875000
9816,-42.968750
9817,-44.921875
9818,-44.921875
9819,-44.921875
9820,-41.015625
9821,-50.781250
9822,-42.968750
9823,-44.921875
9824,-42.968750
9825,-41.015625
9826,-44.921875
9827,-41.015625
9828,-41.015625
9829,-42.968750
9830,-41.015625
9831,-44.921875
9832,-41.015625
9833,-44.921875
9834,-41.015625
9835,-41.015625
9836,-44.921875
9837,-42.968750
9838,-42.968750
9839,-44.921875
9840,-44.921875
9841,-46.875000
9842,-44.921875
9843,-46.875000
9844,-48.828125
9845,-44.921875
9846,-48.828125
9847,-50.781250
9848,-46.875000
9849,-50.781250
9850,-48.828125
9851,-50.781250
9852,-48.828125
9853,-52.734375
9854,-52.734375
9855,-48.828125
9856,-50.781250
9857,-52.734375
9858,-54.687500
9859,-54.687500
9860,-52.734375
9861,-54.687500
9862,-54.687500
9863,-52.734375
9864,-56.640625
9865,-54.687500
9866,-54.687500
9867,-56.640625
9868,-52.734375
9869,-54.687500
9870,-54.687500
9871,-54.687500
9872,-54.687500
9873,-52.734375
9874,-56.640625
9875,-52.734375
9876,-50.781250
9877,-54.687500
9878,-54.687500
9879,-52.734375
9880,-54.687500
9881,-52.734375
9882,-54.687500
9883,-54.687500
9884,-54.687500
9885,-54.687500
9886,-52.734375
9887,-54.687500
9888,-50.781250
9889,-50.781250
9890,-54.687500
9891,-52.734375
9892,-54.687500
9893,-54.687500
9894,-50.781250
9895,-54.687500
9896,-54.687500
9897,-54.687500
9898,-52.734375
9899,-52.734375
9900,-54.687500
9901,-50.781250
9902,-54.687500
9903,-54.687500
9904,-54.687500
9905,-54.687500
9906,-50.781250
9907,-52.734375
9908,-54.687500
9909,-52.734375
9910,-54.687500
9911,-50.781250
9912,-54.687500
9913,-54.687500
9914,-50.781250
9915,-56.640625
9916,-52.734375
9917,-56.640625
9918,-54.687500
9919,-54.687500
9920,-54.687500
9921,-54.687500
9922,-54.687500
9923,-54.687500
9924,-50.781250
9925,-56.640625
9926,-54.687500
9927,-52.734375
9928,-54.687500
9929,-52.734375
9930,-52.734375
9931,-54.687500
9932,-54.687500
9933,-54.687500
9934,-54.687500
9935,-50.781250
9936,-54.687500
9937,-56.640625
9938,-50.781250
9939,-54.687500
9940,-54.687500
9941,-54.687500
9942,-56.640625
9943,-52.734375
9944,-56.640625
9945,-50.781250
9946,-56.640625
9947,-54.687500
9948,-50.781250
9949,-58.593750
9950,-52.734375
9951,-56.640625
9952,-48.828125
9953,-54.687500
9954,-54.687500
9955,-56.640625
9956,-56.640625
9957,-56.640625
9958,-56.640625
9959,-54.687500
9960,-56.640625
9961,-56.640625
9962,-54.687500
9963,-54.687500
9964,-54.687500
9965,-56.640625
9966,-54.687500
9967,-54.687500
9968,-52.734375
9969,-54.687500
9970,-56.640625
9971,-52.734375
9972,-56.640625
9973,-54.687500
9974,-54.687500
9975,-56.640625
9976,-52.734375
9977,-54.687500
9978,-54.687500
9979,-54.687500
9980,-54.687500
9981,-50.781250
9982,-54.687500
9983,-56.640625
9984,-50.781250
9985,-54.687500
9986,-54.687500
9987,-50.781250
9988,-50.781250
9989,-56.640625
9990,-54.687500
9991,-52.734375
9992,-56.640625
9993,-50.781250
9994,-54.687500
9995,-54.687500
9996,-52.734375
9997,-54.687500
9998,-52.734375
9999,-56.640625
10000,-54.687500
