Channel              :,CH1
Frequency            :,  ?
Period               :,  ?
PK-PK                :,103.5mV
Probe attenuation    :,10X
Voltage per ADC value:,0.122070mV
Time interval        :,400.00000us

index,CH1_Voltage(mV)
1,-1.953125
2,-1.953125
3,-13.671875
4,-3.906250
5,-5.859375
6,-9.765625
7,-5.859375
8,-5.859375
9,-7.812500
10,-3.906250
11,-9.765625
12,-3.906250
13,-3.906250
14,-5.859375
15,-1.953125
16,-5.859375
17,-5.859375
18,-5.859375
19,-5.859375
20,-3.906250
21,-5.859375
22,-3.906250
23,-1.953125
24,-5.859375
25,-3.906250
26,-1.953125
27,-3.906250
28,-5.859375
29,-1.953125
30,-3.906250
31,-3.906250
32,-3.906250
33,-1.953125
34,-1.953125
35,-1.953125
36,-1.953125
37,-5.859375
38,-3.906250
39,-1.953125
40,-3.906250
41,-1.953125
42,-1.953125
43,-1.953125
44,-1.953125
45,-3.906250
46,-1.953125
47,-1.953125
48,-1.953125
49,-3.906250
50,-3.906250
51,-1.953125
52,-1.953125
53,-1.953125
54,-3.906250
55,-3.906250
56,-3.906250
57,-3.906250
58,-1.953125
59,-5.859375
60,-3.906250
61,-1.953125
62,-3.906250
63,-3.906250
64,-3.906250
65,-7.812500
66,-1.953125
67,-5.859375
68,-3.906250
69,-5.859375
70,-3.906250
71,-5.859375
72,-3.906250
73,-3.906250
74,-5.859375
75,-3.906250
76,-1.953125
77,-3.906250
78,-3.906250
79,-3.906250
80,-7.812500
81,-7.812500
82,-9.765625
83,-9.765625
84,-13.671875
85,-13.671875
86,-17.578125
87,-21.484375
88,-21.484375
89,-23.437500
90,-25.390625
91,-25.390625
92,-29.296875
93,-33.203125
94,-33.203125
95,-35.156250
96,-35.156250
97,-41.015625
98,-39.062500
99,-44.921875
100,-44.921875
101,-44.921875
102,-46.875000
103,-48.828125
104,-48.828125
105,-52.734375
106,-50.781250
107,-54.687500
108,-54.687500
109,-56.640625
110,-56.640625
111,-56.640625
112,-60.546875
113,-60.546875
114,-56.640625
115,-60.546875
116,-60.546875
117,-60.546875
118,-60.546875
119,-62.500000
120,-60.546875
121,-60.546875
122,-64.453125
123,-56.640625
124,-62.500000
125,-64.453125
126,-62.500000
127,-64.453125
128,-64.453125
129,-64.453125
130,-64.453125
131,-64.453125
132,-56.640625
133,-64.453125
134,-62.500000
135,-66.406250
136,-62.500000
137,-64.453125
138,-64.453125
139,-64.453125
140,-64.453125
141,-64.453125
142,-64.453125
143,-62.500000
144,-64.453125
145,-64.453125
146,-60.546875
147,-64.453125
148,-62.500000
149,-64.453125
150,-44.921875
151,-64.453125
152,-64.453125
153,-64.453125
154,-66.406250
155,-58.593750
156,-64.453125
157,-64.453125
158,-60.546875
159,-62.500000
160,-60.546875
161,-60.546875
162,-62.500000
163,-60.546875
164,-60.546875
165,-60.546875
166,-60.546875
167,-62.500000
168,-52.734375
169,-60.546875
170,-60.546875
171,-56.640625
172,-60.546875
173,-56.640625
174,-56.640625
175,-56.640625
176,-56.640625
177,-54.687500
178,-48.828125
179,-48.828125
180,-46.875000
181,-46.875000
182,-48.828125
183,-44.921875
184,-44.921875
185,-41.015625
186,-41.015625
187,-39.062500
188,-37.109375
189,-33.203125
190,-33.203125
191,-29.296875
192,-25.390625
193,-23.437500
194,-23.437500
195,-25.390625
196,-19.531250
197,-21.484375
198,-15.625000
199,-17.578125
200,-13.671875
201,-13.671875
202,-13.671875
203,-9.765625
204,-13.671875
205,-9.765625
206,-9.765625
207,-9.765625
208,-7.812500
209,-9.765625
210,-5.859375
211,-7.812500
212,-7.812500
213,-1.953125
214,-9.765625
215,-9.765625
216,-13.671875
217,-19.531250
218,-15.625000
219,-23.437500
220,-23.437500
221,-23.437500
222,-29.296875
223,-27.343750
224,-33.203125
225,-37.109375
226,-39.062500
227,-41.015625
228,-42.968750
229,-44.921875
230,-46.875000
231,-48.828125
232,-52.734375
233,-52.734375
234,-54.687500
235,-54.687500
236,-56.640625
237,-60.546875
238,-56.640625
239,-60.546875
240,-60.546875
241,-62.500000
242,-62.500000
243,-54.687500
244,-64.453125
245,-64.453125
246,-64.453125
247,-64.453125
248,-64.453125
249,-66.406250
250,-64.453125
251,-64.453125
252,-64.453125
253,-64.453125
254,-64.453125
255,-64.453125
256,-64.453125
257,-64.453125
258,-66.406250
259,-64.453125
260,-64.453125
261,-66.406250
262,-64.453125
263,-66.406250
264,-64.453125
265,-66.406250
266,-64.453125
267,-64.453125
268,-66.406250
269,-64.453125
270,-64.453125
271,-64.453125
272,-66.406250
273,-66.406250
274,-64.453125
275,-64.453125
276,-64.453125
277,-64.453125
278,-64.453125
279,-66.406250
280,-64.453125
281,-64.453125
282,-64.453125
283,-64.453125
284,-66.406250
285,-62.500000
286,-64.453125
287,-64.453125
288,-64.453125
289,-64.453125
290,-62.500000
291,-66.406250
292,-64.453125
293,-64.453125
294,-66.406250
295,-64.453125
296,-64.453125
297,-64.453125
298,-64.453125
299,-66.406250
300,-64.453125
301,-64.453125
302,-64.453125
303,-64.453125
304,-64.453125
305,-64.453125
306,-64.453125
307,-62.500000
308,-64.453125
309,-64.453125
310,-60.546875
311,-64.453125
312,-62.500000
313,-60.546875
314,-60.546875
315,-60.546875
316,-60.546875
317,-60.546875
318,-60.546875
319,-58.593750
320,-60.546875
321,-60.546875
322,-58.593750
323,-60.546875
324,-60.546875
325,-58.593750
326,-60.546875
327,-56.640625
328,-56.640625
329,-60.546875
330,-56.640625
331,-56.640625
332,-56.640625
333,-56.640625
334,-54.687500
335,-56.640625
336,-56.640625
337,-54.687500
338,-58.593750
339,-60.546875
340,-56.640625
341,-60.546875
342,-52.734375
343,-56.640625
344,-56.640625
345,-56.640625
346,-56.640625
347,-56.640625
348,-60.546875
349,-52.734375
350,-60.546875
351,-56.640625
352,-58.593750
353,-56.640625
354,-56.640625
355,-56.640625
356,-56.640625
357,-56.640625
358,-60.546875
359,-56.640625
360,-58.593750
361,-56.640625
362,-60.546875
363,-60.546875
364,-60.546875
365,-58.593750
366,-58.593750
367,-60.546875
368,-60.546875
369,-62.500000
370,-62.500000
371,-62.500000
372,-62.500000
373,-62.500000
374,-62.500000
375,-64.453125
376,-64.453125
377,-64.453125
378,-64.453125
379,-60.546875
380,-64.453125
381,-64.453125
382,-66.406250
383,-64.453125
384,-64.453125
385,-66.406250
386,-66.406250
387,-60.546875
388,-72.265625
389,-64.453125
390,-64.453125
391,-64.453125
392,-66.406250
393,-66.406250
394,-64.453125
395,-66.406250
396,-64.453125
397,-66.406250
398,-64.453125
399,-64.453125
400,-66.406250
401,-64.453125
402,-64.453125
403,-66.406250
404,-64.453125
405,-64.453125
406,-62.500000
407,-68.359375
408,-66.406250
409,-64.453125
410,-64.453125
411,-64.453125
412,-64.453125
413,-64.453125
414,-64.453125
415,-66.406250
416,-64.453125
417,-66.406250
418,-62.500000
419,-62.500000
420,-64.453125
421,-64.453125
422,-64.453125
423,-64.453125
424,-66.406250
425,-64.453125
426,-64.453125
427,-66.406250
428,-64.453125
429,-62.500000
430,-66.406250
431,-62.500000
432,-64.453125
433,-64.453125
434,-62.500000
435,-64.453125
436,-64.453125
437,-64.453125
438,-64.453125
439,-64.453125
440,-64.453125
441,-62.500000
442,-64.453125
443,-64.453125
444,-64.453125
445,-64.453125
446,-64.453125
447,-64.453125
448,-64.453125
449,-64.453125
450,-66.406250
451,-64.453125
452,-64.453125
453,-64.453125
454,-64.453125
455,-64.453125
456,-64.453125
457,-66.406250
458,-64.453125
459,-64.453125
460,-64.453125
461,-62.500000
462,-66.406250
463,-64.453125
464,-66.406250
465,-72.265625
466,-66.406250
467,-66.406250
468,-64.453125
469,-64.453125
470,-64.453125
471,-62.500000
472,-64.453125
473,-64.453125
474,-66.406250
475,-66.406250
476,-64.453125
477,-64.453125
478,-64.453125
479,-64.453125
480,-64.453125
481,-64.453125
482,-64.453125
483,-64.453125
484,-66.406250
485,-66.406250
486,-64.453125
487,-64.453125
488,-64.453125
489,-64.453125
490,-64.453125
491,-62.500000
492,-66.406250
493,-64.453125
494,-64.453125
495,-64.453125
496,-66.406250
497,-66.406250
498,-66.406250
499,-64.453125
500,-64.453125
501,-66.406250
502,-66.406250
503,-64.453125
504,-66.406250
505,-64.453125
506,-64.453125
507,-68.359375
508,-62.500000
509,-66.406250
510,-64.453125
511,-64.453125
512,-66.406250
513,-64.453125
514,-66.406250
515,-64.453125
516,-68.359375
517,-66.406250
518,-64.453125
519,-64.453125
520,-64.453125
521,-64.453125
522,-66.406250
523,-64.453125
524,-64.453125
525,-66.406250
526,-64.453125
527,-64.453125
528,-68.359375
529,-64.453125
530,-64.453125
531,-64.453125
532,-68.359375
533,-64.453125
534,-64.453125
535,-64.453125
536,-66.406250
537,-64.453125
538,-64.453125
539,-64.453125
540,-64.453125
541,-64.453125
542,-64.453125
543,-64.453125
544,-64.453125
545,-66.406250
546,-64.453125
547,-64.453125
548,-64.453125
549,-64.453125
550,-64.453125
551,-64.453125
552,-64.453125
553,-64.453125
554,-64.453125
555,-62.500000
556,-64.453125
557,-64.453125
558,-64.453125
559,-62.500000
560,-64.453125
561,-64.453125
562,-64.453125
563,-64.453125
564,-64.453125
565,-64.453125
566,-64.453125
567,-64.453125
568,-66.406250
569,-66.406250
570,-64.453125
571,-64.453125
572,-62.500000
573,-64.453125
574,-64.453125
575,-64.453125
576,-64.453125
577,-62.500000
578,-64.453125
579,-64.453125
580,-62.500000
581,-64.453125
582,-64.453125
583,-64.453125
584,-64.453125
585,-62.500000
586,-64.453125
587,-62.500000
588,-64.453125
589,-64.453125
590,-64.453125
591,-64.453125
592,-60.546875
593,-64.453125
594,-64.453125
595,-62.500000
596,-62.500000
597,-64.453125
598,-64.453125
599,-64.453125
600,-62.500000
601,-64.453125
602,-60.546875
603,-64.453125
604,-64.453125
605,-64.453125
606,-64.453125
607,-62.500000
608,-52.734375
609,-64.453125
610,-64.453125
611,-66.406250
612,-62.500000
613,-64.453125
614,-64.453125
615,-62.500000
616,-64.453125
617,-62.500000
618,-64.453125
619,-64.453125
620,-60.546875
621,-66.406250
622,-62.500000
623,-70.312500
624,-66.406250
625,-60.546875
626,-64.453125
627,-62.500000
628,-64.453125
629,-64.453125
630,-60.546875
631,-64.453125
632,-62.500000
633,-64.453125
634,-62.500000
635,-62.500000
636,-64.453125
637,-62.500000
638,-62.500000
639,-64.453125
640,-46.875000
641,-66.406250
642,-64.453125
643,-64.453125
644,-62.500000
645,-64.453125
646,-64.453125
647,-64.453125
648,-64.453125
649,-66.406250
650,-64.453125
651,-64.453125
652,-64.453125
653,-62.500000
654,-64.453125
655,-62.500000
656,-64.453125
657,-62.500000
658,-68.359375
659,-66.406250
660,-64.453125
661,-66.406250
662,-64.453125
663,-66.406250
664,-64.453125
665,-64.453125
666,-64.453125
667,-64.453125
668,-64.453125
669,-64.453125
670,-62.500000
671,-60.546875
672,-60.546875
673,-64.453125
674,-60.546875
675,-56.640625
676,-56.640625
677,-52.734375
678,-52.734375
679,-54.687500
680,-50.781250
681,-52.734375
682,-50.781250
683,-54.687500
684,-52.734375
685,-48.828125
686,-54.687500
687,-50.781250
688,-52.734375
689,-52.734375
690,-50.781250
691,-52.734375
692,-52.734375
693,-50.781250
694,-56.640625
695,-50.781250
696,-56.640625
697,-54.687500
698,-56.640625
699,-54.687500
700,-56.640625
701,-60.546875
702,-60.546875
703,-56.640625
704,-60.546875
705,-56.640625
706,-60.546875
707,-60.546875
708,-62.500000
709,-60.546875
710,-60.546875
711,-62.500000
712,-62.500000
713,-64.453125
714,-64.453125
715,-62.500000
716,-72.265625
717,-62.500000
718,-64.453125
719,-64.453125
720,-64.453125
721,-64.453125
722,-64.453125
723,-64.453125
724,-64.453125
725,-64.453125
726,-66.406250
727,-64.453125
728,-64.453125
729,-66.406250
730,-66.406250
731,-66.406250
732,-66.406250
733,-64.453125
734,-60.546875
735,-64.453125
736,-64.453125
737,-64.453125
738,-64.453125
739,-66.406250
740,-64.453125
741,-64.453125
742,-66.406250
743,-64.453125
744,-66.406250
745,-64.453125
746,-66.406250
747,-66.406250
748,-64.453125
749,-64.453125
750,-64.453125
751,-66.406250
752,-66.406250
753,-64.453125
754,-62.500000
755,-64.453125
756,-64.453125
757,-64.453125
758,-64.453125
759,-60.546875
760,-60.546875
761,-64.453125
762,-56.640625
763,-56.640625
764,-50.781250
765,-54.687500
766,-48.828125
767,-46.875000
768,-44.921875
769,-41.015625
770,-39.062500
771,-41.015625
772,-39.062500
773,-41.015625
774,-37.109375
775,-41.015625
776,-35.156250
777,-33.203125
778,-33.203125
779,-35.156250
780,-31.250000
781,-29.296875
782,-29.296875
783,-25.390625
784,-29.296875
785,-25.390625
786,-23.437500
787,-25.390625
788,-19.531250
789,-23.437500
790,-19.531250
791,-19.531250
792,-21.484375
793,-19.531250
794,-19.531250
795,-17.578125
796,-17.578125
797,-17.578125
798,-15.625000
799,-19.531250
800,-15.625000
801,-17.578125
802,-17.578125
803,-13.671875
804,-17.578125
805,-17.578125
806,-17.578125
807,-21.484375
808,-17.578125
809,-23.437500
810,-23.437500
811,-25.390625
812,-25.390625
813,-27.343750
814,-31.250000
815,-31.250000
816,-33.203125
817,-33.203125
818,-33.203125
819,-39.062500
820,-37.109375
821,-39.062500
822,-41.015625
823,-41.015625
824,-44.921875
825,-39.062500
826,-42.968750
827,-44.921875
828,-44.921875
829,-44.921875
830,-46.875000
831,-48.828125
832,-48.828125
833,-50.781250
834,-50.781250
835,-52.734375
836,-48.828125
837,-52.734375
838,-52.734375
839,-54.687500
840,-52.734375
841,-56.640625
842,-58.593750
843,-56.640625
844,-54.687500
845,-56.640625
846,-56.640625
847,-56.640625
848,-56.640625
849,-60.546875
850,-60.546875
851,-64.453125
852,-60.546875
853,-60.546875
854,-62.500000
855,-58.593750
856,-60.546875
857,-60.546875
858,-60.546875
859,-60.546875
860,-60.546875
861,-60.546875
862,-60.546875
863,-60.546875
864,-62.500000
865,-60.546875
866,-60.546875
867,-60.546875
868,-60.546875
869,-60.546875
870,-60.546875
871,-60.546875
872,-58.593750
873,-60.546875
874,-60.546875
875,-56.640625
876,-58.593750
877,-56.640625
878,-56.640625
879,-58.593750
880,-56.640625
881,-52.734375
882,-48.828125
883,-50.781250
884,-48.828125
885,-48.828125
886,-46.875000
887,-48.828125
888,-44.921875
889,-44.921875
890,-41.015625
891,-44.921875
892,-39.062500
893,-35.156250
894,-33.203125
895,-29.296875
896,-29.296875
897,-25.390625
898,-25.390625
899,-23.437500
900,-15.625000
901,-17.578125
902,-19.531250
903,-15.625000
904,-13.671875
905,-13.671875
906,-9.765625
907,-11.718750
908,-9.765625
909,-9.765625
910,-9.765625
911,-5.859375
912,-7.812500
913,-3.906250
914,-7.812500
915,-5.859375
916,-1.953125
917,-5.859375
918,5.859375
919,-3.906250
920,-3.906250
921,-3.906250
922,-3.906250
923,-3.906250
924,-1.953125
925,-3.906250
926,-1.953125
927,-1.953125
928,-1.953125
929,-1.953125
930,-5.859375
931,-1.953125
932,-5.859375
933,-1.953125
934,0.000000
935,-3.906250
936,-1.953125
937,-3.906250
938,-1.953125
939,-1.953125
940,-3.906250
941,-3.906250
942,-3.906250
943,-1.953125
944,-3.906250
945,-3.906250
946,-3.906250
947,-3.906250
948,-5.859375
949,-3.906250
950,-3.906250
951,-5.859375
952,-5.859375
953,-7.812500
954,-3.906250
955,-5.859375
956,-3.906250
957,-7.812500
958,-7.812500
959,-7.812500
960,-9.765625
961,-7.812500
962,-9.765625
963,-5.859375
964,-9.765625
965,-7.812500
966,-9.765625
967,-9.765625
968,-9.765625
969,-11.718750
970,-9.765625
971,-13.671875
972,-9.765625
973,-7.812500
974,-9.765625
975,-9.765625
976,-9.765625
977,-11.718750
978,-9.765625
979,-11.718750
980,-9.765625
981,-9.765625
982,-9.765625
983,-7.812500
984,-9.765625
985,-9.765625
986,-9.765625
987,-9.765625
988,-7.812500
989,-9.765625
990,-9.765625
991,-7.812500
992,-9.765625
993,-7.812500
994,-9.765625
995,-9.765625
996,-7.812500
997,-7.812500
998,-7.812500
999,-9.765625
1000,-7.812500
1001,-9.765625
1002,-5.859375
1003,-9.765625
1004,-3.906250
1005,-7.812500
1006,-5.859375
1007,-3.906250
1008,-5.859375
1009,-5.859375
1010,-7.812500
1011,-3.906250
1012,-3.906250
1013,-9.765625
1014,-3.906250
1015,-7.812500
1016,-5.859375
1017,-9.765625
1018,-5.859375
1019,-3.906250
1020,-5.859375
1021,-3.906250
1022,-1.953125
1023,-5.859375
1024,-3.906250
1025,-3.906250
1026,-1.953125
1027,-3.906250
1028,-1.953125
1029,-3.906250
1030,-1.953125
1031,-3.906250
1032,-3.906250
1033,-3.906250
1034,-1.953125
1035,-1.953125
1036,-3.906250
1037,-1.953125
1038,-1.953125
1039,-1.953125
1040,-3.906250
1041,-3.906250
1042,-1.953125
1043,-3.906250
1044,-1.953125
1045,-1.953125
1046,-3.906250
1047,-1.953125
1048,-1.953125
1049,-3.906250
1050,-1.953125
1051,-3.906250
1052,-1.953125
1053,-3.906250
1054,-3.906250
1055,-1.953125
1056,-3.906250
1057,-1.953125
1058,-3.906250
1059,-1.953125
1060,-3.906250
1061,-3.906250
1062,-1.953125
1063,-7.812500
1064,-5.859375
1065,-9.765625
1066,-5.859375
1067,-7.812500
1068,-13.671875
1069,-13.671875
1070,-17.578125
1071,-21.484375
1072,-19.531250
1073,-23.437500
1074,-23.437500
1075,-23.437500
1076,-27.343750
1077,-29.296875
1078,-31.250000
1079,-31.250000
1080,-35.156250
1081,-37.109375
1082,-35.156250
1083,-39.062500
1084,-39.062500
1085,-39.062500
1086,-44.921875
1087,-42.968750
1088,-46.875000
1089,-46.875000
1090,-46.875000
1091,-48.828125
1092,-48.828125
1093,-48.828125
1094,-50.781250
1095,-54.687500
1096,-54.687500
1097,-56.640625
1098,-56.640625
1099,-56.640625
1100,-60.546875
1101,-60.546875
1102,-56.640625
1103,-56.640625
1104,-60.546875
1105,-62.500000
1106,-60.546875
1107,-64.453125
1108,-64.453125
1109,-62.500000
1110,-62.500000
1111,-68.359375
1112,-64.453125
1113,-64.453125
1114,-64.453125
1115,-64.453125
1116,-64.453125
1117,-60.546875
1118,-66.406250
1119,-62.500000
1120,-64.453125
1121,-62.500000
1122,-60.546875
1123,-66.406250
1124,-62.500000
1125,-66.406250
1126,-64.453125
1127,-64.453125
1128,-64.453125
1129,-64.453125
1130,-66.406250
1131,-64.453125
1132,-64.453125
1133,-64.453125
1134,-64.453125
1135,-64.453125
1136,-66.406250
1137,-62.500000
1138,-60.546875
1139,-64.453125
1140,-64.453125
1141,-66.406250
1142,-62.500000
1143,-66.406250
1144,-62.500000
1145,-62.500000
1146,-62.500000
1147,-62.500000
1148,-66.406250
1149,-62.500000
1150,-64.453125
1151,-60.546875
1152,-66.406250
1153,-62.500000
1154,-60.546875
1155,-62.500000
1156,-60.546875
1157,-62.500000
1158,-60.546875
1159,-60.546875
1160,-60.546875
1161,-60.546875
1162,-60.546875
1163,-60.546875
1164,-60.546875
1165,-60.546875
1166,-60.546875
1167,-58.593750
1168,-60.546875
1169,-56.640625
1170,-62.500000
1171,-56.640625
1172,-56.640625
1173,-56.640625
1174,-48.828125
1175,-50.781250
1176,-50.781250
1177,-48.828125
1178,-48.828125
1179,-46.875000
1180,-48.828125
1181,-44.921875
1182,-44.921875
1183,-37.109375
1184,-41.015625
1185,-41.015625
1186,-37.109375
1187,-41.015625
1188,-39.062500
1189,-35.156250
1190,-37.109375
1191,-37.109375
1192,-35.156250
1193,-35.156250
1194,-33.203125
1195,-33.203125
1196,-31.250000
1197,-29.296875
1198,-29.296875
1199,-25.390625
1200,-25.390625
1201,-19.531250
1202,-21.484375
1203,-21.484375
1204,-19.531250
1205,-19.531250
1206,-15.625000
1207,-17.578125
1208,-13.671875
1209,-13.671875
1210,-13.671875
1211,-15.625000
1212,-17.578125
1213,-17.578125
1214,-33.203125
1215,-21.484375
1216,-23.437500
1217,-25.390625
1218,-29.296875
1219,-29.296875
1220,-31.250000
1221,-33.203125
1222,-37.109375
1223,-44.921875
1224,-41.015625
1225,-44.921875
1226,-44.921875
1227,-46.875000
1228,-48.828125
1229,-48.828125
1230,-56.640625
1231,-56.640625
1232,-56.640625
1233,-56.640625
1234,-56.640625
1235,-58.593750
1236,-60.546875
1237,-60.546875
1238,-62.500000
1239,-62.500000
1240,-64.453125
1241,-64.453125
1242,-62.500000
1243,-64.453125
1244,-64.453125
1245,-64.453125
1246,-64.453125
1247,-64.453125
1248,-66.406250
1249,-64.453125
1250,-66.406250
1251,-64.453125
1252,-66.406250
1253,-64.453125
1254,-64.453125
1255,-64.453125
1256,-66.406250
1257,-66.406250
1258,-60.546875
1259,-64.453125
1260,-64.453125
1261,-62.500000
1262,-64.453125
1263,-64.453125
1264,-72.265625
1265,-64.453125
1266,-64.453125
1267,-66.406250
1268,-68.359375
1269,-64.453125
1270,-64.453125
1271,-64.453125
1272,-64.453125
1273,-64.453125
1274,-64.453125
1275,-64.453125
1276,-64.453125
1277,-64.453125
1278,-64.453125
1279,-58.593750
1280,-64.453125
1281,-64.453125
1282,-62.500000
1283,-64.453125
1284,-64.453125
1285,-64.453125
1286,-68.359375
1287,-64.453125
1288,-64.453125
1289,-64.453125
1290,-64.453125
1291,-64.453125
1292,-62.500000
1293,-64.453125
1294,-60.546875
1295,-83.984375
1296,-64.453125
1297,-64.453125
1298,-66.406250
1299,-64.453125
1300,-62.500000
1301,-64.453125
1302,-64.453125
1303,-64.453125
1304,-62.500000
1305,-64.453125
1306,-66.406250
1307,-64.453125
1308,-64.453125
1309,-64.453125
1310,-64.453125
1311,-66.406250
1312,-64.453125
1313,-60.546875
1314,-64.453125
1315,-66.406250
1316,-64.453125
1317,-64.453125
1318,-66.406250
1319,-64.453125
1320,-64.453125
1321,-66.406250
1322,-62.500000
1323,-66.406250
1324,-68.359375
1325,-64.453125
1326,-64.453125
1327,-64.453125
1328,-64.453125
1329,-66.406250
1330,-64.453125
1331,-60.546875
1332,-64.453125
1333,-64.453125
1334,-64.453125
1335,-62.500000
1336,-66.406250
1337,-64.453125
1338,-64.453125
1339,-64.453125
1340,-64.453125
1341,-66.406250
1342,-64.453125
1343,-64.453125
1344,-64.453125
1345,-64.453125
1346,-66.406250
1347,-64.453125
1348,-64.453125
1349,-66.406250
1350,-64.453125
1351,-64.453125
1352,-66.406250
1353,-64.453125
1354,-64.453125
1355,-64.453125
1356,-64.453125
1357,-64.453125
1358,-64.453125
1359,-64.453125
1360,-64.453125
1361,-64.453125
1362,-64.453125
1363,-64.453125
1364,-64.453125
1365,-64.453125
1366,-64.453125
1367,-64.453125
1368,-64.453125
1369,-64.453125
1370,-64.453125
1371,-64.453125
1372,-64.453125
1373,-64.453125
1374,-62.500000
1375,-64.453125
1376,-64.453125
1377,-62.500000
1378,-64.453125
1379,-64.453125
1380,-64.453125
1381,-64.453125
1382,-62.500000
1383,-64.453125
1384,-64.453125
1385,-68.359375
1386,-66.406250
1387,-64.453125
1388,-64.453125
1389,-64.453125
1390,-64.453125
1391,-64.453125
1392,-64.453125
1393,-64.453125
1394,-64.453125
1395,-64.453125
1396,-64.453125
1397,-64.453125
1398,-66.406250
1399,-64.453125
1400,-64.453125
1401,-66.406250
1402,-64.453125
1403,-64.453125
1404,-66.406250
1405,-64.453125
1406,-66.406250
1407,-64.453125
1408,-64.453125
1409,-64.453125
1410,-70.312500
1411,-64.453125
1412,-66.406250
1413,-68.359375
1414,-64.453125
1415,-64.453125
1416,-66.406250
1417,-64.453125
1418,-66.406250
1419,-64.453125
1420,-64.453125
1421,-64.453125
1422,-64.453125
1423,-64.453125
1424,-64.453125
1425,-64.453125
1426,-66.406250
1427,-64.453125
1428,-64.453125
1429,-64.453125
1430,-70.312500
1431,-64.453125
1432,-62.500000
1433,-64.453125
1434,-64.453125
1435,-62.500000
1436,-64.453125
1437,-62.500000
1438,-64.453125
1439,-62.500000
1440,-64.453125
1441,-64.453125
1442,-60.546875
1443,-64.453125
1444,-64.453125
1445,-62.500000
1446,-64.453125
1447,-64.453125
1448,-60.546875
1449,-52.734375
1450,-60.546875
1451,-64.453125
1452,-64.453125
1453,-64.453125
1454,-64.453125
1455,-64.453125
1456,-64.453125
1457,-64.453125
1458,-64.453125
1459,-64.453125
1460,-62.500000
1461,-64.453125
1462,-60.546875
1463,-64.453125
1464,-62.500000
1465,-64.453125
1466,-64.453125
1467,-62.500000
1468,-64.453125
1469,-64.453125
1470,-64.453125
1471,-64.453125
1472,-62.500000
1473,-64.453125
1474,-64.453125
1475,-64.453125
1476,-64.453125
1477,-62.500000
1478,-64.453125
1479,-64.453125
1480,-64.453125
1481,-64.453125
1482,-64.453125
1483,-62.500000
1484,-66.406250
1485,-62.500000
1486,-64.453125
1487,-62.500000
1488,-72.265625
1489,-64.453125
1490,-62.500000
1491,-64.453125
1492,-60.546875
1493,-62.500000
1494,-64.453125
1495,-64.453125
1496,-64.453125
1497,-64.453125
1498,-64.453125
1499,-64.453125
1500,-64.453125
1501,-64.453125
1502,-64.453125
1503,-64.453125
1504,-62.500000
1505,-64.453125
1506,-62.500000
1507,-64.453125
1508,-64.453125
1509,-62.500000
1510,-64.453125
1511,-64.453125
1512,-64.453125
1513,-64.453125
1514,-62.500000
1515,-64.453125
1516,-64.453125
1517,-64.453125
1518,-64.453125
1519,-64.453125
1520,-64.453125
1521,-62.500000
1522,-66.406250
1523,-64.453125
1524,-64.453125
1525,-64.453125
1526,-64.453125
1527,-60.546875
1528,-64.453125
1529,-60.546875
1530,-64.453125
1531,-64.453125
1532,-62.500000
1533,-62.500000
1534,-64.453125
1535,-64.453125
1536,-64.453125
1537,-64.453125
1538,-64.453125
1539,-64.453125
1540,-62.500000
1541,-64.453125
1542,-62.500000
1543,-64.453125
1544,-62.500000
1545,-64.453125
1546,-64.453125
1547,-62.500000
1548,-62.500000
1549,-64.453125
1550,-64.453125
1551,-64.453125
1552,-62.500000
1553,-64.453125
1554,-64.453125
1555,-64.453125
1556,-66.406250
1557,-62.500000
1558,-64.453125
1559,-66.406250
1560,-62.500000
1561,-64.453125
1562,-66.406250
1563,-64.453125
1564,-62.500000
1565,-64.453125
1566,-64.453125
1567,-64.453125
1568,-66.406250
1569,-66.406250
1570,-62.500000
1571,-64.453125
1572,-64.453125
1573,-76.171875
1574,-62.500000
1575,-66.406250
1576,-64.453125
1577,-64.453125
1578,-64.453125
1579,-62.500000
1580,-64.453125
1581,-64.453125
1582,-74.218750
1583,-64.453125
1584,-64.453125
1585,-64.453125
1586,-68.359375
1587,-62.500000
1588,-64.453125
1589,-62.500000
1590,-64.453125
1591,-62.500000
1592,-64.453125
1593,-64.453125
1594,-68.359375
1595,-64.453125
1596,-62.500000
1597,-64.453125
1598,-64.453125
1599,-62.500000
1600,-64.453125
1601,-64.453125
1602,-64.453125
1603,-64.453125
1604,-64.453125
1605,-64.453125
1606,-64.453125
1607,-64.453125
1608,-64.453125
1609,-72.265625
1610,-64.453125
1611,-64.453125
1612,-64.453125
1613,-64.453125
1614,-60.546875
1615,-64.453125
1616,-64.453125
1617,-64.453125
1618,-60.546875
1619,-62.500000
1620,-64.453125
1621,-64.453125
1622,-62.500000
1623,-64.453125
1624,-60.546875
1625,-64.453125
1626,-62.500000
1627,-48.828125
1628,-64.453125
1629,-64.453125
1630,-62.500000
1631,-64.453125
1632,-62.500000
1633,-64.453125
1634,-64.453125
1635,-62.500000
1636,-64.453125
1637,-60.546875
1638,-62.500000
1639,-60.546875
1640,-60.546875
1641,-62.500000
1642,-60.546875
1643,-60.546875
1644,-62.500000
1645,-62.500000
1646,-62.500000
1647,-62.500000
1648,-62.500000
1649,-56.640625
1650,-60.546875
1651,-62.500000
1652,-62.500000
1653,-60.546875
1654,-66.406250
1655,-62.500000
1656,-62.500000
1657,-60.546875
1658,-60.546875
1659,-64.453125
1660,-60.546875
1661,-62.500000
1662,-60.546875
1663,-66.406250
1664,-60.546875
1665,-62.500000
1666,-60.546875
1667,-60.546875
1668,-64.453125
1669,-60.546875
1670,-62.500000
1671,-60.546875
1672,-60.546875
1673,-62.500000
1674,-60.546875
1675,-62.500000
1676,-60.546875
1677,-62.500000
1678,-60.546875
1679,-60.546875
1680,-60.546875
1681,-56.640625
1682,-60.546875
1683,-60.546875
1684,-60.546875
1685,-60.546875
1686,-56.640625
1687,-66.406250
1688,-60.546875
1689,-58.593750
1690,-60.546875
1691,-62.500000
1692,-58.593750
1693,-60.546875
1694,-58.593750
1695,-60.546875
1696,-60.546875
1697,-60.546875
1698,-62.500000
1699,-58.593750
1700,-62.500000
1701,-60.546875
1702,-62.500000
1703,-62.500000
1704,-60.546875
1705,-60.546875
1706,-60.546875
1707,-62.500000
1708,-64.453125
1709,-60.546875
1710,-62.500000
1711,-64.453125
1712,-62.500000
1713,-64.453125
1714,-62.500000
1715,-64.453125
1716,-64.453125
1717,-64.453125
1718,-64.453125
1719,-62.500000
1720,-64.453125
1721,-52.734375
1722,-62.500000
1723,-62.500000
1724,-60.546875
1725,-62.500000
1726,-60.546875
1727,-62.500000
1728,-60.546875
1729,-60.546875
1730,-56.640625
1731,-60.546875
1732,-60.546875
1733,-60.546875
1734,-58.593750
1735,-58.593750
1736,-60.546875
1737,-60.546875
1738,-60.546875
1739,-60.546875
1740,-60.546875
1741,-60.546875
1742,-56.640625
1743,-60.546875
1744,-56.640625
1745,-62.500000
1746,-58.593750
1747,-60.546875
1748,-60.546875
1749,-60.546875
1750,-60.546875
1751,-60.546875
1752,-60.546875
1753,-60.546875
1754,-60.546875
1755,-60.546875
1756,-60.546875
1757,-60.546875
1758,-60.546875
1759,-60.546875
1760,-62.500000
1761,-62.500000
1762,-60.546875
1763,-62.500000
1764,-64.453125
1765,-62.500000
1766,-64.453125
1767,-60.546875
1768,-62.500000
1769,-64.453125
1770,-60.546875
1771,-64.453125
1772,-60.546875
1773,-64.453125
1774,-62.500000
1775,-60.546875
1776,-60.546875
1777,-62.500000
1778,-62.500000
1779,-60.546875
1780,-64.453125
1781,-62.500000
1782,-64.453125
1783,-62.500000
1784,-64.453125
1785,-64.453125
1786,-60.546875
1787,-64.453125
1788,-60.546875
1789,-64.453125
1790,-64.453125
1791,-60.546875
1792,-62.500000
1793,-62.500000
1794,-60.546875
1795,-64.453125
1796,-64.453125
1797,-62.500000
1798,-62.500000
1799,-64.453125
1800,-64.453125
1801,-64.453125
1802,-62.500000
1803,-62.500000
1804,-64.453125
1805,-64.453125
1806,-60.546875
1807,-64.453125
1808,-62.500000
1809,-60.546875
1810,-64.453125
1811,-60.546875
1812,-62.500000
1813,-62.500000
1814,-62.500000
1815,-62.500000
1816,-64.453125
1817,-62.500000
1818,-60.546875
1819,-62.500000
1820,-64.453125
1821,-60.546875
1822,-60.546875
1823,-56.640625
1824,-56.640625
1825,-54.687500
1826,-54.687500
1827,-56.640625
1828,-52.734375
1829,-52.734375
1830,-52.734375
1831,-50.781250
1832,-48.828125
1833,-46.875000
1834,-46.875000
1835,-48.828125
1836,-44.921875
1837,-44.921875
1838,-44.921875
1839,-44.921875
1840,-39.062500
1841,-41.015625
1842,-41.015625
1843,-37.109375
1844,-39.062500
1845,-39.062500
1846,-35.156250
1847,-35.156250
1848,-35.156250
1849,-37.109375
1850,-35.156250
1851,-35.156250
1852,-33.203125
1853,-33.203125
1854,-35.156250
1855,-31.250000
1856,-33.203125
1857,-33.203125
1858,-33.203125
1859,-33.203125
1860,-31.250000
1861,-33.203125
1862,-29.296875
1863,-33.203125
1864,-37.109375
1865,-33.203125
1866,-39.062500
1867,-41.015625
1868,-37.109375
1869,-39.062500
1870,-42.968750
1871,-42.968750
1872,-44.921875
1873,-42.968750
1874,-44.921875
1875,-42.968750
1876,-46.875000
1877,-44.921875
1878,-46.875000
1879,-50.781250
1880,-46.875000
1881,-50.781250
1882,-46.875000
1883,-48.828125
1884,-54.687500
1885,-50.781250
1886,-56.640625
1887,-52.734375
1888,-54.687500
1889,-48.828125
1890,-54.687500
1891,-54.687500
1892,-54.687500
1893,-56.640625
1894,-56.640625
1895,-56.640625
1896,-58.593750
1897,-56.640625
1898,-60.546875
1899,-60.546875
1900,-60.546875
1901,-60.546875
1902,-60.546875
1903,-62.500000
1904,-62.500000
1905,-48.828125
1906,-60.546875
1907,-60.546875
1908,-64.453125
1909,-62.500000
1910,-62.500000
1911,-64.453125
1912,-62.500000
1913,-64.453125
1914,-64.453125
1915,-64.453125
1916,-66.406250
1917,-62.500000
1918,-66.406250
1919,-64.453125
1920,-64.453125
1921,-66.406250
1922,-64.453125
1923,-68.359375
1924,-64.453125
1925,-64.453125
1926,-68.359375
1927,-64.453125
1928,-64.453125
1929,-66.406250
1930,-64.453125
1931,-64.453125
1932,-64.453125
1933,-64.453125
1934,-70.312500
1935,-64.453125
1936,-64.453125
1937,-62.500000
1938,-66.406250
1939,-64.453125
1940,-66.406250
1941,-66.406250
1942,-64.453125
1943,-66.406250
1944,-64.453125
1945,-64.453125
1946,-66.406250
1947,-64.453125
1948,-64.453125
1949,-64.453125
1950,-66.406250
1951,-64.453125
1952,-64.453125
1953,-66.406250
1954,-64.453125
1955,-66.406250
1956,-64.453125
1957,-66.406250
1958,-64.453125
1959,-66.406250
1960,-66.406250
1961,-64.453125
1962,-64.453125
1963,-66.406250
1964,-66.406250
1965,-64.453125
1966,-64.453125
1967,-66.406250
1968,-66.406250
1969,-66.406250
1970,-66.406250
1971,-66.406250
1972,-64.453125
1973,-64.453125
1974,-66.406250
1975,-66.406250
1976,-64.453125
1977,-66.406250
1978,-66.406250
1979,-64.453125
1980,-66.406250
1981,-64.453125
1982,-64.453125
1983,-66.406250
1984,-64.453125
1985,-66.406250
1986,-66.406250
1987,-66.406250
1988,-64.453125
1989,-66.406250
1990,-64.453125
1991,-64.453125
1992,-66.406250
1993,-64.453125
1994,-66.406250
1995,-64.453125
1996,-64.453125
1997,-66.406250
1998,-66.406250
1999,-64.453125
2000,-68.359375
2001,-66.406250
2002,-64.453125
2003,-66.406250
2004,-66.406250
2005,-66.406250
2006,-66.406250
2007,-66.406250
2008,-54.687500
2009,-64.453125
2010,-68.359375
2011,-68.359375
2012,-66.406250
2013,-66.406250
2014,-66.406250
2015,-68.359375
2016,-66.406250
2017,-62.500000
2018,-68.359375
2019,-64.453125
2020,-68.359375
2021,-64.453125
2022,-64.453125
2023,-66.406250
2024,-66.406250
2025,-66.406250
2026,-66.406250
2027,-66.406250
2028,-68.359375
2029,-66.406250
2030,-64.453125
2031,-66.406250
2032,-64.453125
2033,-66.406250
2034,-66.406250
2035,-48.828125
2036,-68.359375
2037,-64.453125
2038,-64.453125
2039,-66.406250
2040,-66.406250
2041,-64.453125
2042,-66.406250
2043,-68.359375
2044,-64.453125
2045,-66.406250
2046,-66.406250
2047,-64.453125
2048,-64.453125
2049,-64.453125
2050,-64.453125
2051,-64.453125
2052,-64.453125
2053,-80.078125
2054,-64.453125
2055,-64.453125
2056,-64.453125
2057,-64.453125
2058,-64.453125
2059,-64.453125
2060,-64.453125
2061,-64.453125
2062,-64.453125
2063,-64.453125
2064,-64.453125
2065,-64.453125
2066,-64.453125
2067,-62.500000
2068,-64.453125
2069,-62.500000
2070,-64.453125
2071,-62.500000
2072,-62.500000
2073,-62.500000
2074,-60.546875
2075,-62.500000
2076,-60.546875
2077,-60.546875
2078,-58.593750
2079,-58.593750
2080,-56.640625
2081,-56.640625
2082,-52.734375
2083,-52.734375
2084,-52.734375
2085,-48.828125
2086,-48.828125
2087,-44.921875
2088,-46.875000
2089,-44.921875
2090,-41.015625
2091,-41.015625
2092,-39.062500
2093,-39.062500
2094,-35.156250
2095,-37.109375
2096,-33.203125
2097,-33.203125
2098,-33.203125
2099,-31.250000
2100,-33.203125
2101,-33.203125
2102,-33.203125
2103,-33.203125
2104,-35.156250
2105,-39.062500
2106,-41.015625
2107,-39.062500
2108,-39.062500
2109,-41.015625
2110,-44.921875
2111,-41.015625
2112,-44.921875
2113,-46.875000
2114,-48.828125
2115,-50.781250
2116,-56.640625
2117,-56.640625
2118,-52.734375
2119,-56.640625
2120,-52.734375
2121,-56.640625
2122,-60.546875
2123,-60.546875
2124,-60.546875
2125,-60.546875
2126,-60.546875
2127,-60.546875
2128,-62.500000
2129,-60.546875
2130,-64.453125
2131,-60.546875
2132,-64.453125
2133,-64.453125
2134,-62.500000
2135,-64.453125
2136,-64.453125
2137,-64.453125
2138,-62.500000
2139,-62.500000
2140,-60.546875
2141,-60.546875
2142,-62.500000
2143,-60.546875
2144,-60.546875
2145,-60.546875
2146,-60.546875
2147,-60.546875
2148,-62.500000
2149,-60.546875
2150,-64.453125
2151,-62.500000
2152,-62.500000
2153,-60.546875
2154,-60.546875
2155,-62.500000
2156,-60.546875
2157,-62.500000
2158,-60.546875
2159,-60.546875
2160,-60.546875
2161,-60.546875
2162,-64.453125
2163,-58.593750
2164,-62.500000
2165,-60.546875
2166,-60.546875
2167,-60.546875
2168,-58.593750
2169,-62.500000
2170,-62.500000
2171,-60.546875
2172,-62.500000
2173,-62.500000
2174,-60.546875
2175,-62.500000
2176,-56.640625
2177,-64.453125
2178,-60.546875
2179,-60.546875
2180,-62.500000
2181,-60.546875
2182,-62.500000
2183,-60.546875
2184,-62.500000
2185,-60.546875
2186,-60.546875
2187,-62.500000
2188,-60.546875
2189,-60.546875
2190,-60.546875
2191,-62.500000
2192,-56.640625
2193,-64.453125
2194,-60.546875
2195,-62.500000
2196,-62.500000
2197,-62.500000
2198,-60.546875
2199,-62.500000
2200,-62.500000
2201,-56.640625
2202,-64.453125
2203,-62.500000
2204,-62.500000
2205,-64.453125
2206,-60.546875
2207,-64.453125
2208,-60.546875
2209,-64.453125
2210,-70.312500
2211,-64.453125
2212,-64.453125
2213,-62.500000
2214,-64.453125
2215,-64.453125
2216,-64.453125
2217,-64.453125
2218,-64.453125
2219,-62.500000
2220,-62.500000
2221,-64.453125
2222,-64.453125
2223,-60.546875
2224,-62.500000
2225,-64.453125
2226,-62.500000
2227,-62.500000
2228,-64.453125
2229,-64.453125
2230,-62.500000
2231,-60.546875
2232,-60.546875
2233,-62.500000
2234,-62.500000
2235,-66.406250
2236,-64.453125
2237,-64.453125
2238,-60.546875
2239,-62.500000
2240,-64.453125
2241,-62.500000
2242,-60.546875
2243,-60.546875
2244,-62.500000
2245,-60.546875
2246,-64.453125
2247,-62.500000
2248,-62.500000
2249,-62.500000
2250,-64.453125
2251,-64.453125
2252,-60.546875
2253,-62.500000
2254,-62.500000
2255,-60.546875
2256,-62.500000
2257,-60.546875
2258,-60.546875
2259,-60.546875
2260,-54.687500
2261,-62.500000
2262,-60.546875
2263,-62.500000
2264,-60.546875
2265,-60.546875
2266,-58.593750
2267,-60.546875
2268,-62.500000
2269,-64.453125
2270,-60.546875
2271,-62.500000
2272,-62.500000
2273,-62.500000
2274,-60.546875
2275,-56.640625
2276,-62.500000
2277,-60.546875
2278,-60.546875
2279,-62.500000
2280,-60.546875
2281,-60.546875
2282,-60.546875
2283,-58.593750
2284,-60.546875
2285,-60.546875
2286,-60.546875
2287,-60.546875
2288,-56.640625
2289,-60.546875
2290,-60.546875
2291,-60.546875
2292,-60.546875
2293,-56.640625
2294,-60.546875
2295,-58.593750
2296,-58.593750
2297,-60.546875
2298,-58.593750
2299,-60.546875
2300,-56.640625
2301,-58.593750
2302,-56.640625
2303,-58.593750
2304,-58.593750
2305,-56.640625
2306,-60.546875
2307,-56.640625
2308,-60.546875
2309,-56.640625
2310,-60.546875
2311,-60.546875
2312,-60.546875
2313,-60.546875
2314,-60.546875
2315,-56.640625
2316,-58.593750
2317,-60.546875
2318,-64.453125
2319,-62.500000
2320,-60.546875
2321,-60.546875
2322,-60.546875
2323,-60.546875
2324,-60.546875
2325,-60.546875
2326,-60.546875
2327,-60.546875
2328,-60.546875
2329,-62.500000
2330,-60.546875
2331,-60.546875
2332,-60.546875
2333,-60.546875
2334,-60.546875
2335,-60.546875
2336,-56.640625
2337,-60.546875
2338,-60.546875
2339,-60.546875
2340,-60.546875
2341,-64.453125
2342,-60.546875
2343,-58.593750
2344,-60.546875
2345,-60.546875
2346,-60.546875
2347,-60.546875
2348,-60.546875
2349,-60.546875
2350,-60.546875
2351,-62.500000
2352,-60.546875
2353,-62.500000
2354,-64.453125
2355,-60.546875
2356,-64.453125
2357,-62.500000
2358,-64.453125
2359,-62.500000
2360,-60.546875
2361,-60.546875
2362,-60.546875
2363,-64.453125
2364,-60.546875
2365,-60.546875
2366,-60.546875
2367,-62.500000
2368,-64.453125
2369,-64.453125
2370,-64.453125
2371,-60.546875
2372,-62.500000
2373,-62.500000
2374,-60.546875
2375,-60.546875
2376,-62.500000
2377,-64.453125
2378,-64.453125
2379,-60.546875
2380,-60.546875
2381,-64.453125
2382,-60.546875
2383,-60.546875
2384,-62.500000
2385,-66.406250
2386,-64.453125
2387,-62.500000
2388,-64.453125
2389,-60.546875
2390,-62.500000
2391,-62.500000
2392,-60.546875
2393,-60.546875
2394,-62.500000
2395,-64.453125
2396,-60.546875
2397,-60.546875
2398,-70.312500
2399,-60.546875
2400,-64.453125
2401,-60.546875
2402,-60.546875
2403,-60.546875
2404,-62.500000
2405,-62.500000
2406,-60.546875
2407,-62.500000
2408,-60.546875
2409,-62.500000
2410,-62.500000
2411,-60.546875
2412,-60.546875
2413,-62.500000
2414,-62.500000
2415,-60.546875
2416,-64.453125
2417,-62.500000
2418,-60.546875
2419,-62.500000
2420,-62.500000
2421,-60.546875
2422,-62.500000
2423,-60.546875
2424,-64.453125
2425,-60.546875
2426,-62.500000
2427,-62.500000
2428,-62.500000
2429,-62.500000
2430,-54.687500
2431,-62.500000
2432,-62.500000
2433,-60.546875
2434,-62.500000
2435,-62.500000
2436,-60.546875
2437,-62.500000
2438,-62.500000
2439,-64.453125
2440,-62.500000
2441,-60.546875
2442,-60.546875
2443,-62.500000
2444,-64.453125
2445,-60.546875
2446,-60.546875
2447,-62.500000
2448,-60.546875
2449,-62.500000
2450,-62.500000
2451,-62.500000
2452,-62.500000
2453,-64.453125
2454,-62.500000
2455,-60.546875
2456,-60.546875
2457,-62.500000
2458,-62.500000
2459,-62.500000
2460,-62.500000
2461,-64.453125
2462,-62.500000
2463,-62.500000
2464,-64.453125
2465,-60.546875
2466,-62.500000
2467,-64.453125
2468,-60.546875
2469,-64.453125
2470,-62.500000
2471,-64.453125
2472,-64.453125
2473,-64.453125
2474,-62.500000
2475,-60.546875
2476,-62.500000
2477,-60.546875
2478,-64.453125
2479,-64.453125
2480,-60.546875
2481,-64.453125
2482,-60.546875
2483,-60.546875
2484,-60.546875
2485,-62.500000
2486,-62.500000
2487,-62.500000
2488,-60.546875
2489,-60.546875
2490,-60.546875
2491,-62.500000
2492,-60.546875
2493,-66.406250
2494,-60.546875
2495,-60.546875
2496,-60.546875
2497,-60.546875
2498,-60.546875
2499,-60.546875
2500,-62.500000
2501,-60.546875
2502,-66.406250
2503,-60.546875
2504,-62.500000
2505,-62.500000
2506,-56.640625
2507,-64.453125
2508,-60.546875
2509,-64.453125
2510,-56.640625
2511,-64.453125
2512,-62.500000
2513,-60.546875
2514,-64.453125
2515,-60.546875
2516,-62.500000
2517,-62.500000
2518,-74.218750
2519,-62.500000
2520,-60.546875
2521,-62.500000
2522,-64.453125
2523,-60.546875
2524,-64.453125
2525,-60.546875
2526,-62.500000
2527,-62.500000
2528,-60.546875
2529,-60.546875
2530,-62.500000
2531,-60.546875
2532,-60.546875
2533,-56.640625
2534,-60.546875
2535,-62.500000
2536,-56.640625
2537,-60.546875
2538,-62.500000
2539,-60.546875
2540,-60.546875
2541,-60.546875
2542,-54.687500
2543,-60.546875
2544,-60.546875
2545,-60.546875
2546,-60.546875
2547,-62.500000
2548,-60.546875
2549,-56.640625
2550,-60.546875
2551,-60.546875
2552,-60.546875
2553,-58.593750
2554,-60.546875
2555,-58.593750
2556,-54.687500
2557,-60.546875
2558,-87.890625
2559,-58.593750
2560,-48.828125
2561,-60.546875
2562,-60.546875
2563,-60.546875
2564,-60.546875
2565,-64.453125
2566,-60.546875
2567,-58.593750
2568,-58.593750
2569,-54.687500
2570,-56.640625
2571,-60.546875
2572,-58.593750
2573,-58.593750
2574,-60.546875
2575,-60.546875
2576,-56.640625
2577,-56.640625
2578,-60.546875
2579,-60.546875
2580,-58.593750
2581,-56.640625
2582,-56.640625
2583,-56.640625
2584,-56.640625
2585,-62.500000
2586,-58.593750
2587,-60.546875
2588,-56.640625
2589,-60.546875
2590,-56.640625
2591,-60.546875
2592,-60.546875
2593,-60.546875
2594,-60.546875
2595,-56.640625
2596,-60.546875
2597,-56.640625
2598,-60.546875
2599,-60.546875
2600,-58.593750
2601,-62.500000
2602,-56.640625
2603,-60.546875
2604,-56.640625
2605,-56.640625
2606,-60.546875
2607,-56.640625
2608,-60.546875
2609,-56.640625
2610,-56.640625
2611,-60.546875
2612,-60.546875
2613,-60.546875
2614,-60.546875
2615,-60.546875
2616,-60.546875
2617,-60.546875
2618,-60.546875
2619,-60.546875
2620,-60.546875
2621,-60.546875
2622,-60.546875
2623,-60.546875
2624,-60.546875
2625,-62.500000
2626,-60.546875
2627,-60.546875
2628,-60.546875
2629,-60.546875
2630,-60.546875
2631,-60.546875
2632,-62.500000
2633,-60.546875
2634,-62.500000
2635,-62.500000
2636,-62.500000
2637,-62.500000
2638,-60.546875
2639,-60.546875
2640,-64.453125
2641,-60.546875
2642,-62.500000
2643,-62.500000
2644,-62.500000
2645,-64.453125
2646,-62.500000
2647,-62.500000
2648,-60.546875
2649,-62.500000
2650,-60.546875
2651,-60.546875
2652,-64.453125
2653,-60.546875
2654,-64.453125
2655,-64.453125
2656,-60.546875
2657,-64.453125
2658,-60.546875
2659,-64.453125
2660,-64.453125
2661,-62.500000
2662,-62.500000
2663,-60.546875
2664,-64.453125
2665,-58.593750
2666,-62.500000
2667,-60.546875
2668,-62.500000
2669,-64.453125
2670,-60.546875
2671,-62.500000
2672,-64.453125
2673,-60.546875
2674,-64.453125
2675,-60.546875
2676,-62.500000
2677,-60.546875
2678,-64.453125
2679,-62.500000
2680,-64.453125
2681,-62.500000
2682,-58.593750
2683,-62.500000
2684,-60.546875
2685,-60.546875
2686,-64.453125
2687,-60.546875
2688,-62.500000
2689,-62.500000
2690,-62.500000
2691,-62.500000
2692,-60.546875
2693,-64.453125
2694,-62.500000
2695,-60.546875
2696,-62.500000
2697,-62.500000
2698,-62.500000
2699,-62.500000
2700,-60.546875
2701,-64.453125
2702,-60.546875
2703,-60.546875
2704,-56.640625
2705,-62.500000
2706,-64.453125
2707,-60.546875
2708,-64.453125
2709,-62.500000
2710,-62.500000
2711,-62.500000
2712,-62.500000
2713,-60.546875
2714,-64.453125
2715,-60.546875
2716,-56.640625
2717,-41.015625
2718,-58.593750
2719,-54.687500
2720,-54.687500
2721,-50.781250
2722,-48.828125
2723,-48.828125
2724,-46.875000
2725,-46.875000
2726,-44.921875
2727,-44.921875
2728,-44.921875
2729,-42.968750
2730,-41.015625
2731,-41.015625
2732,-39.062500
2733,-37.109375
2734,-39.062500
2735,-33.203125
2736,-35.156250
2737,-37.109375
2738,-37.109375
2739,-37.109375
2740,-41.015625
2741,-37.109375
2742,-41.015625
2743,-41.015625
2744,-41.015625
2745,-42.968750
2746,-41.015625
2747,-44.921875
2748,-44.921875
2749,-44.921875
2750,-44.921875
2751,-44.921875
2752,-48.828125
2753,-60.546875
2754,-48.828125
2755,-48.828125
2756,-50.781250
2757,-48.828125
2758,-52.734375
2759,-52.734375
2760,-54.687500
2761,-54.687500
2762,-60.546875
2763,-56.640625
2764,-56.640625
2765,-58.593750
2766,-56.640625
2767,-52.734375
2768,-60.546875
2769,-56.640625
2770,-60.546875
2771,-64.453125
2772,-60.546875
2773,-64.453125
2774,-60.546875
2775,-62.500000
2776,-64.453125
2777,-60.546875
2778,-64.453125
2779,-64.453125
2780,-66.406250
2781,-64.453125
2782,-64.453125
2783,-64.453125
2784,-64.453125
2785,-64.453125
2786,-64.453125
2787,-62.500000
2788,-64.453125
2789,-64.453125
2790,-64.453125
2791,-66.406250
2792,-64.453125
2793,-64.453125
2794,-64.453125
2795,-64.453125
2796,-66.406250
2797,-66.406250
2798,-68.359375
2799,-66.406250
2800,-64.453125
2801,-66.406250
2802,-64.453125
2803,-66.406250
2804,-64.453125
2805,-66.406250
2806,-64.453125
2807,-64.453125
2808,-66.406250
2809,-66.406250
2810,-66.406250
2811,-64.453125
2812,-66.406250
2813,-66.406250
2814,-64.453125
2815,-66.406250
2816,-64.453125
2817,-66.406250
2818,-64.453125
2819,-66.406250
2820,-64.453125
2821,-64.453125
2822,-64.453125
2823,-64.453125
2824,-66.406250
2825,-62.500000
2826,-62.500000
2827,-60.546875
2828,-58.593750
2829,-64.453125
2830,-64.453125
2831,-60.546875
2832,-62.500000
2833,-60.546875
2834,-60.546875
2835,-56.640625
2836,-56.640625
2837,-56.640625
2838,-54.687500
2839,-54.687500
2840,-56.640625
2841,-54.687500
2842,-52.734375
2843,-50.781250
2844,-52.734375
2845,-50.781250
2846,-44.921875
2847,-46.875000
2848,-44.921875
2849,-44.921875
2850,-44.921875
2851,-42.968750
2852,-42.968750
2853,-41.015625
2854,-41.015625
2855,-37.109375
2856,-39.062500
2857,-37.109375
2858,-35.156250
2859,-35.156250
2860,-33.203125
2861,-33.203125
2862,-31.250000
2863,-31.250000
2864,-29.296875
2865,-29.296875
2866,-29.296875
2867,-23.437500
2868,-31.250000
2869,-25.390625
2870,-25.390625
2871,-25.390625
2872,-25.390625
2873,-25.390625
2874,-21.484375
2875,-21.484375
2876,-23.437500
2877,-19.531250
2878,-23.437500
2879,-21.484375
2880,-21.484375
2881,-23.437500
2882,-19.531250
2883,-21.484375
2884,-19.531250
2885,-21.484375
2886,-19.531250
2887,-17.578125
2888,-21.484375
2889,-19.531250
2890,-21.484375
2891,-19.531250
2892,-17.578125
2893,-19.531250
2894,-19.531250
2895,-19.531250
2896,-21.484375
2897,-21.484375
2898,-19.531250
2899,-19.531250
2900,-21.484375
2901,-21.484375
2902,-19.531250
2903,-19.531250
2904,-19.531250
2905,-27.343750
2906,-19.531250
2907,-19.531250
2908,-21.484375
2909,-19.531250
2910,-21.484375
2911,-19.531250
2912,-21.484375
2913,-19.531250
2914,-21.484375
2915,-29.296875
2916,-21.484375
2917,-21.484375
2918,-21.484375
2919,-19.531250
2920,-19.531250
2921,-21.484375
2922,-19.531250
2923,-21.484375
2924,-19.531250
2925,-21.484375
2926,-19.531250
2927,-23.437500
2928,-21.484375
2929,-21.484375
2930,-21.484375
2931,-21.484375
2932,-21.484375
2933,-21.484375
2934,-19.531250
2935,-19.531250
2936,-19.531250
2937,-19.531250
2938,-17.578125
2939,-19.531250
2940,-19.531250
2941,-19.531250
2942,-21.484375
2943,-17.578125
2944,-21.484375
2945,-19.531250
2946,-19.531250
2947,-23.437500
2948,-17.578125
2949,-21.484375
2950,-19.531250
2951,-19.531250
2952,-17.578125
2953,-17.578125
2954,-21.484375
2955,-17.578125
2956,-23.437500
2957,-19.531250
2958,-17.578125
2959,-21.484375
2960,-17.578125
2961,-23.437500
2962,-19.531250
2963,-17.578125
2964,-19.531250
2965,-17.578125
2966,-17.578125
2967,-21.484375
2968,-17.578125
2969,-19.531250
2970,-17.578125
2971,-19.531250
2972,-17.578125
2973,-25.390625
2974,-17.578125
2975,-15.625000
2976,-17.578125
2977,-17.578125
2978,-17.578125
2979,-17.578125
2980,-15.625000
2981,-17.578125
2982,-9.765625
2983,-15.625000
2984,-17.578125
2985,-13.671875
2986,-17.578125
2987,-11.718750
2988,-13.671875
2989,-13.671875
2990,-19.531250
2991,-13.671875
2992,-9.765625
2993,-13.671875
2994,-11.718750
2995,-9.765625
2996,-13.671875
2997,-13.671875
2998,-17.578125
2999,-17.578125
3000,-17.578125
3001,-19.531250
3002,-21.484375
3003,-21.484375
3004,-23.437500
3005,-25.390625
3006,-23.437500
3007,-31.250000
3008,-27.343750
3009,-35.156250
3010,-35.156250
3011,-33.203125
3012,-37.109375
3013,-37.109375
3014,-41.015625
3015,-41.015625
3016,-41.015625
3017,-44.921875
3018,-46.875000
3019,-48.828125
3020,-48.828125
3021,-48.828125
3022,-52.734375
3023,-48.828125
3024,-52.734375
3025,-54.687500
3026,-54.687500
3027,-56.640625
3028,-56.640625
3029,-54.687500
3030,-60.546875
3031,-54.687500
3032,-56.640625
3033,-60.546875
3034,-58.593750
3035,-60.546875
3036,-62.500000
3037,-62.500000
3038,-60.546875
3039,-60.546875
3040,-60.546875
3041,-60.546875
3042,-62.500000
3043,-60.546875
3044,-62.500000
3045,-62.500000
3046,-60.546875
3047,-64.453125
3048,-60.546875
3049,-62.500000
3050,-62.500000
3051,-62.500000
3052,-60.546875
3053,-62.500000
3054,-60.546875
3055,-64.453125
3056,-60.546875
3057,-64.453125
3058,-62.500000
3059,-62.500000
3060,-62.500000
3061,-62.500000
3062,-64.453125
3063,-60.546875
3064,-64.453125
3065,-62.500000
3066,-60.546875
3067,-60.546875
3068,-60.546875
3069,-62.500000
3070,-62.500000
3071,-62.500000
3072,-60.546875
3073,-64.453125
3074,-62.500000
3075,-58.593750
3076,-62.500000
3077,-60.546875
3078,-60.546875
3079,-62.500000
3080,-60.546875
3081,-60.546875
3082,-64.453125
3083,-60.546875
3084,-60.546875
3085,-62.500000
3086,-62.500000
3087,-62.500000
3088,-60.546875
3089,-60.546875
3090,-60.546875
3091,-62.500000
3092,-62.500000
3093,-60.546875
3094,-62.500000
3095,-64.453125
3096,-60.546875
3097,-62.500000
3098,-60.546875
3099,-62.500000
3100,-60.546875
3101,-62.500000
3102,-64.453125
3103,-62.500000
3104,-64.453125
3105,-62.500000
3106,-62.500000
3107,-62.500000
3108,-60.546875
3109,-64.453125
3110,-62.500000
3111,-64.453125
3112,-64.453125
3113,-62.500000
3114,-48.828125
3115,-62.500000
3116,-64.453125
3117,-62.500000
3118,-64.453125
3119,-64.453125
3120,-60.546875
3121,-62.500000
3122,-62.500000
3123,-60.546875
3124,-60.546875
3125,-60.546875
3126,-62.500000
3127,-56.640625
3128,-56.640625
3129,-60.546875
3130,-56.640625
3131,-56.640625
3132,-52.734375
3133,-52.734375
3134,-48.828125
3135,-50.781250
3136,-52.734375
3137,-52.734375
3138,-48.828125
3139,-50.781250
3140,-48.828125
3141,-48.828125
3142,-44.921875
3143,-44.921875
3144,-44.921875
3145,-44.921875
3146,-46.875000
3147,-44.921875
3148,-44.921875
3149,-44.921875
3150,-44.921875
3151,-42.968750
3152,-44.921875
3153,-48.828125
3154,-44.921875
3155,-44.921875
3156,-44.921875
3157,-46.875000
3158,-48.828125
3159,-48.828125
3160,-48.828125
3161,-50.781250
3162,-50.781250
3163,-54.687500
3164,-54.687500
3165,-56.640625
3166,-54.687500
3167,-60.546875
3168,-60.546875
3169,-56.640625
3170,-60.546875
3171,-58.593750
3172,-60.546875
3173,-62.500000
3174,-58.593750
3175,-62.500000
3176,-62.500000
3177,-62.500000
3178,-64.453125
3179,-58.593750
3180,-60.546875
3181,-62.500000
3182,-62.500000
3183,-62.500000
3184,-62.500000
3185,-60.546875
3186,-62.500000
3187,-62.500000
3188,-62.500000
3189,-62.500000
3190,-62.500000
3191,-60.546875
3192,-60.546875
3193,-60.546875
3194,-60.546875
3195,-64.453125
3196,-60.546875
3197,-60.546875
3198,-62.500000
3199,-60.546875
3200,-60.546875
3201,-56.640625
3202,-60.546875
3203,-60.546875
3204,-60.546875
3205,-62.500000
3206,-58.593750
3207,-62.500000
3208,-56.640625
3209,-58.593750
3210,-60.546875
3211,-60.546875
3212,-62.500000
3213,-56.640625
3214,-60.546875
3215,-60.546875
3216,-56.640625
3217,-62.500000
3218,-60.546875
3219,-60.546875
3220,-60.546875
3221,-60.546875
3222,-60.546875
3223,-60.546875
3224,-58.593750
3225,-60.546875
3226,-60.546875
3227,-60.546875
3228,-56.640625
3229,-58.593750
3230,-62.500000
3231,-56.640625
3232,-62.500000
3233,-60.546875
3234,-60.546875
3235,-60.546875
3236,-56.640625
3237,-60.546875
3238,-60.546875
3239,-56.640625
3240,-60.546875
3241,-56.640625
3242,-60.546875
3243,-62.500000
3244,-64.453125
3245,-62.500000
3246,-54.687500
3247,-62.500000
3248,-60.546875
3249,-60.546875
3250,-62.500000
3251,-60.546875
3252,-60.546875
3253,-64.453125
3254,-62.500000
3255,-60.546875
3256,-62.500000
3257,-62.500000
3258,-62.500000
3259,-64.453125
3260,-60.546875
3261,-64.453125
3262,-62.500000
3263,-60.546875
3264,-64.453125
3265,-62.500000
3266,-64.453125
3267,-60.546875
3268,-64.453125
3269,-64.453125
3270,-56.640625
3271,-64.453125
3272,-64.453125
3273,-62.500000
3274,-60.546875
3275,-60.546875
3276,-64.453125
3277,-64.453125
3278,-62.500000
3279,-64.453125
3280,-62.500000
3281,-60.546875
3282,-64.453125
3283,-64.453125
3284,-62.500000
3285,-64.453125
3286,-60.546875
3287,-64.453125
3288,-60.546875
3289,-62.500000
3290,-62.500000
3291,-60.546875
3292,-64.453125
3293,-60.546875
3294,-64.453125
3295,-60.546875
3296,-60.546875
3297,-60.546875
3298,-60.546875
3299,-62.500000
3300,-60.546875
3301,-64.453125
3302,-62.500000
3303,-62.500000
3304,-60.546875
3305,-60.546875
3306,-64.453125
3307,-64.453125
3308,-56.640625
3309,-62.500000
3310,-60.546875
3311,-60.546875
3312,-62.500000
3313,-60.546875
3314,-62.500000
3315,-62.500000
3316,-62.500000
3317,-62.500000
3318,-60.546875
3319,-62.500000
3320,-62.500000
3321,-60.546875
3322,-60.546875
3323,-60.546875
3324,-60.546875
3325,-60.546875
3326,-60.546875
3327,-60.546875
3328,-56.640625
3329,-60.546875
3330,-60.546875
3331,-60.546875
3332,-60.546875
3333,-60.546875
3334,-60.546875
3335,-56.640625
3336,-58.593750
3337,-60.546875
3338,-58.593750
3339,-60.546875
3340,-60.546875
3341,-64.453125
3342,-58.593750
3343,-58.593750
3344,-60.546875
3345,-56.640625
3346,-60.546875
3347,-56.640625
3348,-56.640625
3349,-60.546875
3350,-56.640625
3351,-60.546875
3352,-56.640625
3353,-60.546875
3354,-60.546875
3355,-56.640625
3356,-60.546875
3357,-56.640625
3358,-60.546875
3359,-56.640625
3360,-56.640625
3361,-60.546875
3362,-60.546875
3363,-60.546875
3364,-60.546875
3365,-58.593750
3366,-60.546875
3367,-60.546875
3368,-60.546875
3369,-56.640625
3370,-56.640625
3371,-60.546875
3372,-56.640625
3373,-60.546875
3374,-60.546875
3375,-54.687500
3376,-60.546875
3377,-60.546875
3378,-56.640625
3379,-60.546875
3380,-60.546875
3381,-60.546875
3382,-60.546875
3383,-62.500000
3384,-58.593750
3385,-56.640625
3386,-60.546875
3387,-56.640625
3388,-60.546875
3389,-56.640625
3390,-60.546875
3391,-56.640625
3392,-60.546875
3393,-60.546875
3394,-60.546875
3395,-60.546875
3396,-60.546875
3397,-58.593750
3398,-62.500000
3399,-60.546875
3400,-56.640625
3401,-60.546875
3402,-58.593750
3403,-60.546875
3404,-60.546875
3405,-60.546875
3406,-60.546875
3407,-60.546875
3408,-60.546875
3409,-60.546875
3410,-60.546875
3411,-56.640625
3412,-60.546875
3413,-60.546875
3414,-56.640625
3415,-60.546875
3416,-60.546875
3417,-60.546875
3418,-60.546875
3419,-56.640625
3420,-60.546875
3421,-60.546875
3422,-60.546875
3423,-60.546875
3424,-60.546875
3425,-60.546875
3426,-58.593750
3427,-60.546875
3428,-60.546875
3429,-58.593750
3430,-60.546875
3431,-60.546875
3432,-60.546875
3433,-60.546875
3434,-56.640625
3435,-60.546875
3436,-62.500000
3437,-60.546875
3438,-62.500000
3439,-60.546875
3440,-60.546875
3441,-62.500000
3442,-60.546875
3443,-62.500000
3444,-60.546875
3445,-62.500000
3446,-58.593750
3447,-60.546875
3448,-60.546875
3449,-60.546875
3450,-60.546875
3451,-60.546875
3452,-62.500000
3453,-60.546875
3454,-64.453125
3455,-60.546875
3456,-60.546875
3457,-62.500000
3458,-60.546875
3459,-64.453125
3460,-60.546875
3461,-60.546875
3462,-64.453125
3463,-60.546875
3464,-62.500000
3465,-60.546875
3466,-60.546875
3467,-62.500000
3468,-60.546875
3469,-64.453125
3470,-60.546875
3471,-60.546875
3472,-62.500000
3473,-62.500000
3474,-62.500000
3475,-62.500000
3476,-60.546875
3477,-62.500000
3478,-60.546875
3479,-60.546875
3480,-60.546875
3481,-60.546875
3482,-64.453125
3483,-60.546875
3484,-60.546875
3485,-60.546875
3486,-64.453125
3487,-60.546875
3488,-60.546875
3489,-60.546875
3490,-56.640625
3491,-60.546875
3492,-60.546875
3493,-60.546875
3494,-62.500000
3495,-56.640625
3496,-64.453125
3497,-60.546875
3498,-60.546875
3499,-60.546875
3500,-60.546875
3501,-60.546875
3502,-62.500000
3503,-64.453125
3504,-58.593750
3505,-62.500000
3506,-60.546875
3507,-60.546875
3508,-62.500000
3509,-60.546875
3510,-64.453125
3511,-60.546875
3512,-52.734375
3513,-72.265625
3514,-60.546875
3515,-62.500000
3516,-60.546875
3517,-64.453125
3518,-60.546875
3519,-60.546875
3520,-60.546875
3521,-62.500000
3522,-60.546875
3523,-60.546875
3524,-62.500000
3525,-62.500000
3526,-60.546875
3527,-60.546875
3528,-60.546875
3529,-56.640625
3530,-54.687500
3531,-62.500000
3532,-58.593750
3533,-60.546875
3534,-60.546875
3535,-60.546875
3536,-62.500000
3537,-60.546875
3538,-60.546875
3539,-62.500000
3540,-62.500000
3541,-60.546875
3542,-62.500000
3543,-60.546875
3544,-60.546875
3545,-60.546875
3546,-58.593750
3547,-60.546875
3548,-64.453125
3549,-60.546875
3550,-60.546875
3551,-60.546875
3552,-60.546875
3553,-60.546875
3554,-56.640625
3555,-60.546875
3556,-64.453125
3557,-60.546875
3558,-64.453125
3559,-58.593750
3560,-60.546875
3561,-62.500000
3562,-58.593750
3563,-60.546875
3564,-60.546875
3565,-62.500000
3566,-60.546875
3567,-60.546875
3568,-60.546875
3569,-60.546875
3570,-56.640625
3571,-60.546875
3572,-60.546875
3573,-62.500000
3574,-60.546875
3575,-60.546875
3576,-62.500000
3577,-60.546875
3578,-60.546875
3579,-58.593750
3580,-60.546875
3581,-62.500000
3582,-56.640625
3583,-60.546875
3584,-56.640625
3585,-60.546875
3586,-60.546875
3587,-56.640625
3588,-60.546875
3589,-56.640625
3590,-60.546875
3591,-60.546875
3592,-60.546875
3593,-60.546875
3594,-60.546875
3595,-60.546875
3596,-60.546875
3597,-60.546875
3598,-60.546875
3599,-58.593750
3600,-60.546875
3601,-58.593750
3602,-58.593750
3603,-68.359375
3604,-56.640625
3605,-56.640625
3606,-60.546875
3607,-56.640625
3608,-56.640625
3609,-58.593750
3610,-60.546875
3611,-62.500000
3612,-56.640625
3613,-60.546875
3614,-58.593750
3615,-62.500000
3616,-60.546875
3617,-60.546875
3618,-60.546875
3619,-60.546875
3620,-60.546875
3621,-56.640625
3622,-60.546875
3623,-56.640625
3624,-60.546875
3625,-60.546875
3626,-56.640625
3627,-60.546875
3628,-60.546875
3629,-56.640625
3630,-60.546875
3631,-56.640625
3632,-60.546875
3633,-56.640625
3634,-60.546875
3635,-60.546875
3636,-56.640625
3637,-60.546875
3638,-60.546875
3639,-60.546875
3640,-60.546875
3641,-58.593750
3642,-58.593750
3643,-60.546875
3644,-60.546875
3645,-62.500000
3646,-60.546875
3647,-62.500000
3648,-60.546875
3649,-60.546875
3650,-60.546875
3651,-54.687500
3652,-60.546875
3653,-56.640625
3654,-62.500000
3655,-60.546875
3656,-62.500000
3657,-60.546875
3658,-60.546875
3659,-62.500000
3660,-60.546875
3661,-62.500000
3662,-62.500000
3663,-62.500000
3664,-60.546875
3665,-60.546875
3666,-62.500000
3667,-60.546875
3668,-60.546875
3669,-62.500000
3670,-60.546875
3671,-60.546875
3672,-60.546875
3673,-60.546875
3674,-58.593750
3675,-56.640625
3676,-56.640625
3677,-56.640625
3678,-54.687500
3679,-56.640625
3680,-52.734375
3681,-50.781250
3682,-48.828125
3683,-35.156250
3684,-48.828125
3685,-48.828125
3686,-48.828125
3687,-48.828125
3688,-48.828125
3689,-48.828125
3690,-44.921875
3691,-48.828125
3692,-46.875000
3693,-46.875000
3694,-46.875000
3695,-46.875000
3696,-46.875000
3697,-48.828125
3698,-46.875000
3699,-48.828125
3700,-46.875000
3701,-48.828125
3702,-50.781250
3703,-48.828125
3704,-54.687500
3705,-48.828125
3706,-54.687500
3707,-54.687500
3708,-52.734375
3709,-54.687500
3710,-50.781250
3711,-56.640625
3712,-56.640625
3713,-56.640625
3714,-56.640625
3715,-56.640625
3716,-58.593750
3717,-56.640625
3718,-56.640625
3719,-60.546875
3720,-56.640625
3721,-60.546875
3722,-56.640625
3723,-60.546875
3724,-64.453125
3725,-60.546875
3726,-60.546875
3727,-62.500000
3728,-60.546875
3729,-60.546875
3730,-60.546875
3731,-62.500000
3732,-60.546875
3733,-62.500000
3734,-62.500000
3735,-60.546875
3736,-62.500000
3737,-60.546875
3738,-62.500000
3739,-64.453125
3740,-60.546875
3741,-66.406250
3742,-64.453125
3743,-64.453125
3744,-64.453125
3745,-64.453125
3746,-60.546875
3747,-60.546875
3748,-64.453125
3749,-64.453125
3750,-64.453125
3751,-66.406250
3752,-64.453125
3753,-62.500000
3754,-64.453125
3755,-64.453125
3756,-62.500000
3757,-66.406250
3758,-64.453125
3759,-66.406250
3760,-64.453125
3761,-64.453125
3762,-64.453125
3763,-62.500000
3764,-64.453125
3765,-60.546875
3766,-62.500000
3767,-60.546875
3768,-60.546875
3769,-64.453125
3770,-60.546875
3771,-60.546875
3772,-56.640625
3773,-54.687500
3774,-56.640625
3775,-50.781250
3776,-54.687500
3777,-48.828125
3778,-46.875000
3779,-44.921875
3780,-46.875000
3781,-44.921875
3782,-41.015625
3783,-41.015625
3784,-39.062500
3785,-39.062500
3786,-50.781250
3787,-33.203125
3788,-33.203125
3789,-31.250000
3790,-29.296875
3791,-27.343750
3792,-29.296875
3793,-23.437500
3794,-25.390625
3795,-23.437500
3796,-21.484375
3797,-23.437500
3798,-19.531250
3799,-23.437500
3800,-21.484375
3801,-19.531250
3802,-19.531250
3803,-17.578125
3804,-23.437500
3805,-17.578125
3806,-19.531250
3807,-17.578125
3808,-17.578125
3809,-21.484375
3810,-17.578125
3811,-17.578125
3812,-19.531250
3813,-17.578125
3814,-17.578125
3815,-17.578125
3816,-17.578125
3817,-17.578125
3818,-17.578125
3819,-17.578125
3820,-17.578125
3821,-17.578125
3822,-5.859375
3823,-17.578125
3824,-17.578125
3825,-17.578125
3826,-17.578125
3827,-19.531250
3828,-19.531250
3829,-21.484375
3830,-19.531250
3831,-25.390625
3832,-23.437500
3833,-23.437500
3834,-25.390625
3835,-25.390625
3836,-29.296875
3837,-29.296875
3838,-31.250000
3839,-31.250000
3840,-33.203125
3841,-35.156250
3842,-33.203125
3843,-37.109375
3844,-37.109375
3845,-41.015625
3846,-37.109375
3847,-39.062500
3848,-41.015625
3849,-41.015625
3850,-41.015625
3851,-44.921875
3852,-44.921875
3853,-44.921875
3854,-46.875000
3855,-48.828125
3856,-48.828125
3857,-44.921875
3858,-46.875000
3859,-48.828125
3860,-46.875000
3861,-50.781250
3862,-46.875000
3863,-48.828125
3864,-48.828125
3865,-48.828125
3866,-52.734375
3867,-50.781250
3868,-54.687500
3869,-48.828125
3870,-52.734375
3871,-54.687500
3872,-52.734375
3873,-54.687500
3874,-52.734375
3875,-56.640625
3876,-56.640625
3877,-56.640625
3878,-56.640625
3879,-56.640625
3880,-56.640625
3881,-56.640625
3882,-58.593750
3883,-60.546875
3884,-56.640625
3885,-56.640625
3886,-60.546875
3887,-58.593750
3888,-60.546875
3889,-62.500000
3890,-62.500000
3891,-60.546875
3892,-60.546875
3893,-62.500000
3894,-62.500000
3895,-60.546875
3896,-56.640625
3897,-64.453125
3898,-64.453125
3899,-60.546875
3900,-64.453125
3901,-60.546875
3902,-64.453125
3903,-62.500000
3904,-62.500000
3905,-64.453125
3906,-60.546875
3907,-64.453125
3908,-60.546875
3909,-64.453125
3910,-62.500000
3911,-62.500000
3912,-68.359375
3913,-64.453125
3914,-64.453125
3915,-62.500000
3916,-62.500000
3917,-64.453125
3918,-62.500000
3919,-64.453125
3920,-64.453125
3921,-64.453125
3922,-64.453125
3923,-64.453125
3924,-66.406250
3925,-64.453125
3926,-64.453125
3927,-62.500000
3928,-62.500000
3929,-64.453125
3930,-64.453125
3931,-64.453125
3932,-64.453125
3933,-62.500000
3934,-64.453125
3935,-64.453125
3936,-60.546875
3937,-64.453125
3938,-60.546875
3939,-64.453125
3940,-62.500000
3941,-64.453125
3942,-64.453125
3943,-62.500000
3944,-64.453125
3945,-64.453125
3946,-64.453125
3947,-62.500000
3948,-66.406250
3949,-64.453125
3950,-64.453125
3951,-64.453125
3952,-64.453125
3953,-64.453125
3954,-64.453125
3955,-64.453125
3956,-64.453125
3957,-64.453125
3958,-62.500000
3959,-66.406250
3960,-62.500000
3961,-64.453125
3962,-64.453125
3963,-64.453125
3964,-64.453125
3965,-64.453125
3966,-68.359375
3967,-64.453125
3968,-62.500000
3969,-64.453125
3970,-64.453125
3971,-64.453125
3972,-62.500000
3973,-62.500000
3974,-68.359375
3975,-68.359375
3976,-64.453125
3977,-66.406250
3978,-64.453125
3979,-66.406250
3980,-62.500000
3981,-64.453125
3982,-64.453125
3983,-64.453125
3984,-64.453125
3985,-64.453125
3986,-64.453125
3987,-64.453125
3988,-64.453125
3989,-66.406250
3990,-64.453125
3991,-66.406250
3992,-64.453125
3993,-64.453125
3994,-66.406250
3995,-64.453125
3996,-64.453125
3997,-64.453125
3998,-64.453125
3999,-66.406250
4000,-64.453125
4001,-64.453125
4002,-68.359375
4003,-66.406250
4004,-64.453125
4005,-64.453125
4006,-64.453125
4007,-66.406250
4008,-66.406250
4009,-62.500000
4010,-66.406250
4011,-64.453125
4012,-64.453125
4013,-66.406250
4014,-64.453125
4015,-66.406250
4016,-64.453125
4017,-66.406250
4018,-64.453125
4019,-66.406250
4020,-66.406250
4021,-64.453125
4022,-64.453125
4023,-64.453125
4024,-66.406250
4025,-64.453125
4026,-62.500000
4027,-64.453125
4028,-64.453125
4029,-70.312500
4030,-64.453125
4031,-66.406250
4032,-64.453125
4033,-64.453125
4034,-64.453125
4035,-62.500000
4036,-64.453125
4037,-62.500000
4038,-64.453125
4039,-62.500000
4040,-62.500000
4041,-60.546875
4042,-60.546875
4043,-60.546875
4044,-60.546875
4045,-60.546875
4046,-60.546875
4047,-60.546875
4048,-56.640625
4049,-56.640625
4050,-56.640625
4051,-54.687500
4052,-54.687500
4053,-52.734375
4054,-48.828125
4055,-48.828125
4056,-46.875000
4057,-46.875000
4058,-44.921875
4059,-41.015625
4060,-41.015625
4061,-39.062500
4062,-39.062500
4063,-35.156250
4064,-31.250000
4065,-33.203125
4066,-27.343750
4067,-29.296875
4068,-25.390625
4069,-19.531250
4070,-23.437500
4071,-17.578125
4072,-17.578125
4073,-17.578125
4074,-17.578125
4075,-15.625000
4076,-9.765625
4077,-9.765625
4078,-9.765625
4079,-9.765625
4080,-9.765625
4081,-7.812500
4082,-5.859375
4083,-3.906250
4084,-1.953125
4085,-7.812500
4086,-3.906250
4087,-3.906250
4088,-3.906250
4089,-1.953125
4090,-5.859375
4091,-5.859375
4092,-11.718750
4093,-9.765625
4094,-13.671875
4095,-15.625000
4096,-17.578125
4097,-21.484375
4098,-25.390625
4099,-25.390625
4100,-29.296875
4101,-31.250000
4102,-37.109375
4103,-37.109375
4104,-41.015625
4105,-42.968750
4106,-44.921875
4107,-48.828125
4108,-44.921875
4109,-50.781250
4110,-52.734375
4111,-54.687500
4112,-54.687500
4113,-56.640625
4114,-56.640625
4115,-56.640625
4116,-58.593750
4117,-60.546875
4118,-60.546875
4119,-64.453125
4120,-60.546875
4121,-62.500000
4122,-64.453125
4123,-62.500000
4124,-60.546875
4125,-64.453125
4126,-60.546875
4127,-64.453125
4128,-64.453125
4129,-64.453125
4130,-64.453125
4131,-60.546875
4132,-64.453125
4133,-60.546875
4134,-64.453125
4135,-62.500000
4136,-62.500000
4137,-62.500000
4138,-64.453125
4139,-64.453125
4140,-62.500000
4141,-62.500000
4142,-62.500000
4143,-62.500000
4144,-64.453125
4145,-64.453125
4146,-62.500000
4147,-62.500000
4148,-62.500000
4149,-64.453125
4150,-64.453125
4151,-60.546875
4152,-64.453125
4153,-64.453125
4154,-64.453125
4155,-60.546875
4156,-60.546875
4157,-64.453125
4158,-62.500000
4159,-64.453125
4160,-62.500000
4161,-62.500000
4162,-64.453125
4163,-64.453125
4164,-62.500000
4165,-62.500000
4166,-64.453125
4167,-62.500000
4168,-68.359375
4169,-62.500000
4170,-62.500000
4171,-62.500000
4172,-60.546875
4173,-62.500000
4174,-64.453125
4175,-60.546875
4176,-60.546875
4177,-62.500000
4178,-60.546875
4179,-60.546875
4180,-58.593750
4181,-60.546875
4182,-60.546875
4183,-54.687500
4184,-56.640625
4185,-56.640625
4186,-56.640625
4187,-56.640625
4188,-50.781250
4189,-54.687500
4190,-52.734375
4191,-52.734375
4192,-54.687500
4193,-52.734375
4194,-52.734375
4195,-44.921875
4196,-50.781250
4197,-52.734375
4198,-48.828125
4199,-50.781250
4200,-50.781250
4201,-52.734375
4202,-52.734375
4203,-52.734375
4204,-41.015625
4205,-48.828125
4206,-54.687500
4207,-52.734375
4208,-50.781250
4209,-56.640625
4210,-52.734375
4211,-56.640625
4212,-54.687500
4213,-50.781250
4214,-56.640625
4215,-56.640625
4216,-60.546875
4217,-56.640625
4218,-56.640625
4219,-60.546875
4220,-60.546875
4221,-62.500000
4222,-60.546875
4223,-60.546875
4224,-62.500000
4225,-60.546875
4226,-62.500000
4227,-60.546875
4228,-64.453125
4229,-62.500000
4230,-64.453125
4231,-66.406250
4232,-64.453125
4233,-64.453125
4234,-64.453125
4235,-62.500000
4236,-64.453125
4237,-64.453125
4238,-62.500000
4239,-64.453125
4240,-60.546875
4241,-64.453125
4242,-64.453125
4243,-62.500000
4244,-64.453125
4245,-58.593750
4246,-62.500000
4247,-62.500000
4248,-64.453125
4249,-64.453125
4250,-62.500000
4251,-64.453125
4252,-60.546875
4253,-62.500000
4254,-60.546875
4255,-64.453125
4256,-60.546875
4257,-62.500000
4258,-62.500000
4259,-64.453125
4260,-64.453125
4261,-62.500000
4262,-64.453125
4263,-64.453125
4264,-62.500000
4265,-62.500000
4266,-62.500000
4267,-64.453125
4268,-60.546875
4269,-64.453125
4270,-62.500000
4271,-62.500000
4272,-64.453125
4273,-60.546875
4274,-64.453125
4275,-62.500000
4276,-62.500000
4277,-62.500000
4278,-64.453125
4279,-60.546875
4280,-62.500000
4281,-62.500000
4282,-62.500000
4283,-60.546875
4284,-60.546875
4285,-62.500000
4286,-60.546875
4287,-62.500000
4288,-62.500000
4289,-62.500000
4290,-62.500000
4291,-60.546875
4292,-66.406250
4293,-64.453125
4294,-62.500000
4295,-64.453125
4296,-62.500000
4297,-64.453125
4298,-64.453125
4299,-64.453125
4300,-64.453125
4301,-64.453125
4302,-64.453125
4303,-64.453125
4304,-62.500000
4305,-64.453125
4306,-64.453125
4307,-64.453125
4308,-64.453125
4309,-64.453125
4310,-64.453125
4311,-60.546875
4312,-64.453125
4313,-64.453125
4314,-64.453125
4315,-64.453125
4316,-64.453125
4317,-64.453125
4318,-62.500000
4319,-64.453125
4320,-62.500000
4321,-60.546875
4322,-64.453125
4323,-62.500000
4324,-64.453125
4325,-62.500000
4326,-64.453125
4327,-64.453125
4328,-60.546875
4329,-64.453125
4330,-58.593750
4331,-64.453125
4332,-62.500000
4333,-60.546875
4334,-60.546875
4335,-64.453125
4336,-60.546875
4337,-60.546875
4338,-60.546875
4339,-64.453125
4340,-60.546875
4341,-62.500000
4342,-60.546875
4343,-60.546875
4344,-60.546875
4345,-60.546875
4346,-62.500000
4347,-62.500000
4348,-60.546875
4349,-60.546875
4350,-60.546875
4351,-62.500000
4352,-60.546875
4353,-60.546875
4354,-64.453125
4355,-60.546875
4356,-64.453125
4357,-62.500000
4358,-62.500000
4359,-62.500000
4360,-60.546875
4361,-66.406250
4362,-62.500000
4363,-62.500000
4364,-64.453125
4365,-62.500000
4366,-64.453125
4367,-60.546875
4368,-62.500000
4369,-62.500000
4370,-56.640625
4371,-64.453125
4372,-64.453125
4373,-64.453125
4374,-64.453125
4375,-64.453125
4376,-64.453125
4377,-64.453125
4378,-64.453125
4379,-56.640625
4380,-64.453125
4381,-66.406250
4382,-64.453125
4383,-64.453125
4384,-64.453125
4385,-62.500000
4386,-64.453125
4387,-62.500000
4388,-66.406250
4389,-64.453125
4390,-62.500000
4391,-64.453125
4392,-64.453125
4393,-66.406250
4394,-64.453125
4395,-62.500000
4396,-64.453125
4397,-62.500000
4398,-64.453125
4399,-64.453125
4400,-64.453125
4401,-60.546875
4402,-64.453125
4403,-64.453125
4404,-62.500000
4405,-64.453125
4406,-64.453125
4407,-64.453125
4408,-64.453125
4409,-64.453125
4410,-64.453125
4411,-64.453125
4412,-64.453125
4413,-64.453125
4414,-64.453125
4415,-66.406250
4416,-64.453125
4417,-64.453125
4418,-64.453125
4419,-64.453125
4420,-62.500000
4421,-64.453125
4422,-64.453125
4423,-64.453125
4424,-62.500000
4425,-64.453125
4426,-64.453125
4427,-64.453125
4428,-66.406250
4429,-64.453125
4430,-64.453125
4431,-64.453125
4432,-64.453125
4433,-64.453125
4434,-62.500000
4435,-64.453125
4436,-64.453125
4437,-64.453125
4438,-64.453125
4439,-64.453125
4440,-64.453125
4441,-60.546875
4442,-64.453125
4443,-64.453125
4444,-64.453125
4445,-64.453125
4446,-64.453125
4447,-70.312500
4448,-64.453125
4449,-62.500000
4450,-64.453125
4451,-60.546875
4452,-64.453125
4453,-64.453125
4454,-62.500000
4455,-64.453125
4456,-62.500000
4457,-64.453125
4458,-62.500000
4459,-62.500000
4460,-66.406250
4461,-62.500000
4462,-64.453125
4463,-64.453125
4464,-64.453125
4465,-64.453125
4466,-64.453125
4467,-64.453125
4468,-60.546875
4469,-64.453125
4470,-64.453125
4471,-62.500000
4472,-66.406250
4473,-64.453125
4474,-64.453125
4475,-64.453125
4476,-64.453125
4477,-64.453125
4478,-64.453125
4479,-64.453125
4480,-64.453125
4481,-62.500000
4482,-64.453125
4483,-64.453125
4484,-62.500000
4485,-64.453125
4486,-62.500000
4487,-64.453125
4488,-64.453125
4489,-64.453125
4490,-64.453125
4491,-64.453125
4492,-64.453125
4493,-62.500000
4494,-64.453125
4495,-64.453125
4496,-64.453125
4497,-64.453125
4498,-62.500000
4499,-64.453125
4500,-64.453125
4501,-64.453125
4502,-64.453125
4503,-64.453125
4504,-64.453125
4505,-64.453125
4506,-64.453125
4507,-56.640625
4508,-66.406250
4509,-64.453125
4510,-64.453125
4511,-64.453125
4512,-64.453125
4513,-62.500000
4514,-64.453125
4515,-66.406250
4516,-66.406250
4517,-64.453125
4518,-64.453125
4519,-64.453125
4520,-64.453125
4521,-66.406250
4522,-64.453125
4523,-60.546875
4524,-66.406250
4525,-64.453125
4526,-64.453125
4527,-62.500000
4528,-64.453125
4529,-64.453125
4530,-64.453125
4531,-64.453125
4532,-64.453125
4533,-64.453125
4534,-64.453125
4535,-64.453125
4536,-66.406250
4537,-64.453125
4538,-64.453125
4539,-64.453125
4540,-64.453125
4541,-62.500000
4542,-64.453125
4543,-60.546875
4544,-64.453125
4545,-64.453125
4546,-64.453125
4547,-64.453125
4548,-62.500000
4549,-64.453125
4550,-60.546875
4551,-62.500000
4552,-62.500000
4553,-64.453125
4554,-64.453125
4555,-62.500000
4556,-64.453125
4557,-64.453125
4558,-64.453125
4559,-68.359375
4560,-62.500000
4561,-64.453125
4562,-60.546875
4563,-64.453125
4564,-64.453125
4565,-64.453125
4566,-64.453125
4567,-60.546875
4568,-64.453125
4569,-64.453125
4570,-64.453125
4571,-64.453125
4572,-64.453125
4573,-64.453125
4574,-62.500000
4575,-64.453125
4576,-64.453125
4577,-66.406250
4578,-64.453125
4579,-62.500000
4580,-64.453125
4581,-64.453125
4582,-54.687500
4583,-64.453125
4584,-64.453125
4585,-64.453125
4586,-66.406250
4587,-64.453125
4588,-64.453125
4589,-64.453125
4590,-62.500000
4591,-64.453125
4592,-64.453125
4593,-64.453125
4594,-58.593750
4595,-60.546875
4596,-64.453125
4597,-64.453125
4598,-64.453125
4599,-64.453125
4600,-64.453125
4601,-64.453125
4602,-64.453125
4603,-64.453125
4604,-64.453125
4605,-64.453125
4606,-62.500000
4607,-64.453125
4608,-64.453125
4609,-64.453125
4610,-95.703125
4611,-64.453125
4612,-64.453125
4613,-64.453125
4614,-64.453125
4615,-64.453125
4616,-64.453125
4617,-64.453125
4618,-64.453125
4619,-64.453125
4620,-64.453125
4621,-64.453125
4622,-66.406250
4623,-64.453125
4624,-64.453125
4625,-64.453125
4626,-64.453125
4627,-66.406250
4628,-64.453125
4629,-66.406250
4630,-66.406250
4631,-64.453125
4632,-64.453125
4633,-64.453125
4634,-66.406250
4635,-64.453125
4636,-64.453125
4637,-64.453125
4638,-64.453125
4639,-64.453125
4640,-64.453125
4641,-60.546875
4642,-62.500000
4643,-60.546875
4644,-64.453125
4645,-60.546875
4646,-56.640625
4647,-54.687500
4648,-54.687500
4649,-56.640625
4650,-50.781250
4651,-48.828125
4652,-50.781250
4653,-41.015625
4654,-48.828125
4655,-44.921875
4656,-42.968750
4657,-44.921875
4658,-41.015625
4659,-41.015625
4660,-37.109375
4661,-35.156250
4662,-35.156250
4663,-33.203125
4664,-35.156250
4665,-33.203125
4666,-33.203125
4667,-35.156250
4668,-33.203125
4669,-37.109375
4670,-35.156250
4671,-41.015625
4672,-37.109375
4673,-37.109375
4674,-41.015625
4675,-41.015625
4676,-42.968750
4677,-41.015625
4678,-44.921875
4679,-46.875000
4680,-41.015625
4681,-46.875000
4682,-48.828125
4683,-48.828125
4684,-48.828125
4685,-52.734375
4686,-48.828125
4687,-54.687500
4688,-52.734375
4689,-54.687500
4690,-52.734375
4691,-54.687500
4692,-54.687500
4693,-54.687500
4694,-56.640625
4695,-56.640625
4696,-56.640625
4697,-56.640625
4698,-50.781250
4699,-60.546875
4700,-56.640625
4701,-60.546875
4702,-60.546875
4703,-62.500000
4704,-60.546875
4705,-60.546875
4706,-62.500000
4707,-58.593750
4708,-62.500000
4709,-62.500000
4710,-62.500000
4711,-64.453125
4712,-62.500000
4713,-64.453125
4714,-60.546875
4715,-64.453125
4716,-64.453125
4717,-64.453125
4718,-64.453125
4719,-62.500000
4720,-64.453125
4721,-64.453125
4722,-64.453125
4723,-64.453125
4724,-64.453125
4725,-64.453125
4726,-64.453125
4727,-64.453125
4728,-64.453125
4729,-64.453125
4730,-66.406250
4731,-66.406250
4732,-62.500000
4733,-64.453125
4734,-64.453125
4735,-66.406250
4736,-64.453125
4737,-64.453125
4738,-64.453125
4739,-62.500000
4740,-64.453125
4741,-64.453125
4742,-64.453125
4743,-64.453125
4744,-64.453125
4745,-64.453125
4746,-64.453125
4747,-62.500000
4748,-64.453125
4749,-64.453125
4750,-62.500000
4751,-64.453125
4752,-64.453125
4753,-64.453125
4754,-62.500000
4755,-62.500000
4756,-62.500000
4757,-62.500000
4758,-60.546875
4759,-60.546875
4760,-60.546875
4761,-60.546875
4762,-60.546875
4763,-60.546875
4764,-60.546875
4765,-60.546875
4766,-56.640625
4767,-60.546875
4768,-60.546875
4769,-56.640625
4770,-56.640625
4771,-48.828125
4772,-54.687500
4773,-50.781250
4774,-50.781250
4775,-48.828125
4776,-48.828125
4777,-46.875000
4778,-46.875000
4779,-44.921875
4780,-41.015625
4781,-41.015625
4782,-39.062500
4783,-41.015625
4784,-35.156250
4785,-33.203125
4786,-33.203125
4787,-33.203125
4788,-29.296875
4789,-25.390625
4790,-29.296875
4791,-27.343750
4792,-25.390625
4793,-25.390625
4794,-19.531250
4795,-21.484375
4796,-17.578125
4797,-17.578125
4798,-15.625000
4799,-13.671875
4800,-13.671875
4801,-13.671875
4802,-13.671875
4803,-13.671875
4804,-5.859375
4805,-9.765625
4806,-13.671875
4807,-9.765625
4808,-9.765625
4809,-7.812500
4810,-7.812500
4811,-5.859375
4812,-5.859375
4813,-7.812500
4814,-3.906250
4815,-5.859375
4816,-3.906250
4817,-5.859375
4818,-7.812500
4819,-3.906250
4820,-7.812500
4821,-5.859375
4822,-5.859375
4823,-5.859375
4824,-5.859375
4825,-3.906250
4826,-3.906250
4827,-5.859375
4828,-3.906250
4829,-3.906250
4830,-5.859375
4831,-3.906250
4832,-5.859375
4833,-5.859375
4834,-5.859375
4835,-5.859375
4836,-3.906250
4837,-3.906250
4838,-3.906250
4839,-3.906250
4840,-5.859375
4841,-5.859375
4842,-5.859375
4843,-5.859375
4844,-3.906250
4845,-7.812500
4846,-1.953125
4847,-5.859375
4848,-5.859375
4849,-5.859375
4850,-3.906250
4851,-3.906250
4852,-5.859375
4853,-3.906250
4854,-3.906250
4855,0.000000
4856,-3.906250
4857,-7.812500
4858,-3.906250
4859,-5.859375
4860,-3.906250
4861,-7.812500
4862,-5.859375
4863,-5.859375
4864,5.859375
4865,-5.859375
4866,-5.859375
4867,-5.859375
4868,-5.859375
4869,-5.859375
4870,-3.906250
4871,-5.859375
4872,-5.859375
4873,-3.906250
4874,-7.812500
4875,-3.906250
4876,-5.859375
4877,-5.859375
4878,-3.906250
4879,-3.906250
4880,-3.906250
4881,-3.906250
4882,-5.859375
4883,-3.906250
4884,-7.812500
4885,-3.906250
4886,-3.906250
4887,-5.859375
4888,-3.906250
4889,-5.859375
4890,-3.906250
4891,-3.906250
4892,-1.953125
4893,-3.906250
4894,-3.906250
4895,-3.906250
4896,-3.906250
4897,-3.906250
4898,-3.906250
4899,-3.906250
4900,-7.812500
4901,-1.953125
4902,-5.859375
4903,-3.906250
4904,-3.906250
4905,-7.812500
4906,-3.906250
4907,-5.859375
4908,-3.906250
4909,-1.953125
4910,-1.953125
4911,-3.906250
4912,-3.906250
4913,-3.906250
4914,-3.906250
4915,-5.859375
4916,-3.906250
4917,-3.906250
4918,-7.812500
4919,-3.906250
4920,-3.906250
4921,-1.953125
4922,-3.906250
4923,-3.906250
4924,-3.906250
4925,-3.906250
4926,-5.859375
4927,1.953125
4928,-7.812500
4929,-3.906250
4930,-3.906250
4931,-5.859375
4932,-3.906250
4933,-1.953125
4934,-3.906250
4935,-3.906250
4936,0.000000
4937,-5.859375
4938,-1.953125
4939,-3.906250
4940,-1.953125
4941,-3.906250
4942,-3.906250
4943,-3.906250
4944,-1.953125
4945,1.953125
4946,-3.906250
4947,-1.953125
4948,-3.906250
4949,-3.906250
4950,-1.953125
4951,-3.906250
4952,-3.906250
4953,-3.906250
4954,-3.906250
4955,-1.953125
4956,-1.953125
4957,-3.906250
4958,-3.906250
4959,-1.953125
4960,-5.859375
4961,-3.906250
4962,-3.906250
4963,-1.953125
4964,-1.953125
4965,-3.906250
4966,-3.906250
4967,-1.953125
4968,-1.953125
4969,-3.906250
4970,-1.953125
4971,-5.859375
4972,-3.906250
4973,-3.906250
4974,-3.906250
4975,-1.953125
4976,-3.906250
4977,-1.953125
4978,-5.859375
4979,-1.953125
4980,-3.906250
4981,-1.953125
4982,-1.953125
4983,-3.906250
4984,-1.953125
4985,-3.906250
4986,-1.953125
4987,-1.953125
4988,-3.906250
4989,-1.953125
4990,-1.953125
4991,-1.953125
4992,-1.953125
4993,-3.906250
4994,-1.953125
4995,-3.906250
4996,0.000000
4997,-1.953125
4998,-3.906250
4999,-1.953125
5000,-1.953125
5001,-1.953125
5002,-3.906250
5003,-1.953125
5004,-1.953125
5005,-3.906250
5006,-3.906250
5007,-1.953125
5008,-1.953125
5009,-3.906250
5010,-1.953125
5011,-3.906250
5012,-3.906250
5013,-3.906250
5014,-3.906250
5015,0.000000
5016,-3.906250
5017,-3.906250
5018,-1.953125
5019,-3.906250
5020,-1.953125
5021,-3.906250
5022,-1.953125
5023,-1.953125
5024,-3.906250
5025,-1.953125
5026,-3.906250
5027,-1.953125
5028,-1.953125
5029,-3.906250
5030,-3.906250
5031,-1.953125
5032,-5.859375
5033,-1.953125
5034,-3.906250
5035,-3.906250
5036,-3.906250
5037,0.000000
5038,-1.953125
5039,-3.906250
5040,-3.906250
5041,-1.953125
5042,-1.953125
5043,-1.953125
5044,-3.906250
5045,-3.906250
5046,-1.953125
5047,-3.906250
5048,-1.953125
5049,-3.906250
5050,-1.953125
5051,-1.953125
5052,0.000000
5053,-1.953125
5054,-3.906250
5055,-1.953125
5056,-3.906250
5057,-3.906250
5058,-7.812500
5059,-13.671875
5060,-11.718750
5061,-13.671875
5062,-15.625000
5063,-15.625000
5064,-21.484375
5065,-21.484375
5066,-27.343750
5067,-25.390625
5068,-31.250000
5069,-29.296875
5070,-29.296875
5071,-35.156250
5072,-35.156250
5073,-39.062500
5074,-41.015625
5075,-41.015625
5076,-44.921875
5077,-44.921875
5078,-46.875000
5079,-48.828125
5080,-48.828125
5081,-52.734375
5082,-50.781250
5083,-54.687500
5084,-58.593750
5085,-56.640625
5086,-56.640625
5087,-50.781250
5088,-56.640625
5089,-60.546875
5090,-56.640625
5091,-62.500000
5092,-60.546875
5093,-60.546875
5094,-62.500000
5095,-60.546875
5096,-64.453125
5097,-60.546875
5098,-64.453125
5099,-60.546875
5100,-62.500000
5101,-62.500000
5102,-60.546875
5103,-62.500000
5104,-60.546875
5105,-62.500000
5106,-62.500000
5107,-60.546875
5108,-60.546875
5109,-60.546875
5110,-62.500000
5111,-64.453125
5112,-64.453125
5113,-62.500000
5114,-62.500000
5115,-64.453125
5116,-60.546875
5117,-64.453125
5118,-62.500000
5119,-60.546875
5120,-66.406250
5121,-60.546875
5122,-62.500000
5123,-66.406250
5124,-62.500000
5125,-64.453125
5126,-62.500000
5127,-62.500000
5128,-64.453125
5129,-62.500000
5130,-64.453125
5131,-62.500000
5132,-64.453125
5133,-64.453125
5134,-62.500000
5135,-64.453125
5136,-60.546875
5137,-60.546875
5138,-62.500000
5139,-58.593750
5140,-62.500000
5141,-52.734375
5142,-64.453125
5143,-62.500000
5144,-64.453125
5145,-62.500000
5146,-62.500000
5147,-64.453125
5148,-62.500000
5149,-62.500000
5150,-60.546875
5151,-62.500000
5152,-62.500000
5153,-60.546875
5154,-64.453125
5155,-60.546875
5156,-64.453125
5157,-60.546875
5158,-60.546875
5159,-64.453125
5160,-60.546875
5161,-60.546875
5162,-62.500000
5163,-60.546875
5164,-60.546875
5165,-60.546875
5166,-60.546875
5167,-64.453125
5168,-60.546875
5169,-60.546875
5170,-56.640625
5171,-56.640625
5172,-56.640625
5173,-60.546875
5174,-56.640625
5175,-56.640625
5176,-54.687500
5177,-50.781250
5178,-48.828125
5179,-48.828125
5180,-44.921875
5181,-44.921875
5182,-44.921875
5183,-41.015625
5184,-39.062500
5185,-35.156250
5186,-33.203125
5187,-33.203125
5188,-33.203125
5189,-31.250000
5190,-29.296875
5191,-31.250000
5192,-29.296875
5193,-29.296875
5194,-31.250000
5195,-31.250000
5196,-33.203125
5197,-29.296875
5198,-33.203125
5199,-33.203125
5200,-35.156250
5201,-37.109375
5202,-39.062500
5203,-41.015625
5204,-41.015625
5205,-44.921875
5206,-44.921875
5207,-48.828125
5208,-48.828125
5209,-52.734375
5210,-52.734375
5211,-54.687500
5212,-56.640625
5213,-58.593750
5214,-56.640625
5215,-60.546875
5216,-62.500000
5217,-62.500000
5218,-60.546875
5219,-60.546875
5220,-60.546875
5221,-60.546875
5222,-62.500000
5223,-62.500000
5224,-62.500000
5225,-62.500000
5226,-64.453125
5227,-64.453125
5228,-62.500000
5229,-62.500000
5230,-64.453125
5231,-60.546875
5232,-64.453125
5233,-60.546875
5234,-62.500000
5235,-64.453125
5236,-62.500000
5237,-60.546875
5238,-62.500000
5239,-60.546875
5240,-62.500000
5241,-62.500000
5242,-62.500000
5243,-60.546875
5244,-60.546875
5245,-60.546875
5246,-58.593750
5247,-62.500000
5248,-60.546875
5249,-60.546875
5250,-60.546875
5251,-60.546875
5252,-60.546875
5253,-62.500000
5254,-62.500000
5255,-60.546875
5256,-62.500000
5257,-60.546875
5258,-64.453125
5259,-68.359375
5260,-62.500000
5261,-62.500000
5262,-58.593750
5263,-60.546875
5264,-60.546875
5265,-58.593750
5266,-60.546875
5267,-56.640625
5268,-56.640625
5269,-56.640625
5270,-56.640625
5271,-56.640625
5272,-52.734375
5273,-54.687500
5274,-52.734375
5275,-52.734375
5276,-54.687500
5277,-48.828125
5278,-48.828125
5279,-48.828125
5280,-52.734375
5281,-52.734375
5282,-54.687500
5283,-50.781250
5284,-56.640625
5285,-54.687500
5286,-64.453125
5287,-56.640625
5288,-56.640625
5289,-56.640625
5290,-52.734375
5291,-56.640625
5292,-56.640625
5293,-58.593750
5294,-60.546875
5295,-60.546875
5296,-62.500000
5297,-60.546875
5298,-60.546875
5299,-62.500000
5300,-62.500000
5301,-64.453125
5302,-64.453125
5303,-64.453125
5304,-64.453125
5305,-62.500000
5306,-64.453125
5307,-64.453125
5308,-64.453125
5309,-64.453125
5310,-64.453125
5311,-64.453125
5312,-62.500000
5313,-64.453125
5314,-64.453125
5315,-62.500000
5316,-66.406250
5317,-62.500000
5318,-64.453125
5319,-64.453125
5320,-64.453125
5321,-64.453125
5322,-60.546875
5323,-62.500000
5324,-64.453125
5325,-62.500000
5326,-64.453125
5327,-60.546875
5328,-60.546875
5329,-64.453125
5330,-64.453125
5331,-62.500000
5332,-60.546875
5333,-64.453125
5334,-64.453125
5335,-62.500000
5336,-64.453125
5337,-62.500000
5338,-62.500000
5339,-64.453125
5340,-62.500000
5341,-64.453125
5342,-62.500000
5343,-62.500000
5344,-64.453125
5345,-62.500000
5346,-64.453125
5347,-64.453125
5348,-64.453125
5349,-64.453125
5350,-64.453125
5351,-64.453125
5352,-64.453125
5353,-64.453125
5354,-64.453125
5355,-64.453125
5356,-62.500000
5357,-64.453125
5358,-64.453125
5359,-62.500000
5360,-64.453125
5361,-64.453125
5362,-64.453125
5363,-64.453125
5364,-64.453125
5365,-64.453125
5366,-64.453125
5367,-62.500000
5368,-64.453125
5369,-64.453125
5370,-64.453125
5371,-64.453125
5372,-64.453125
5373,-64.453125
5374,-66.406250
5375,-64.453125
5376,-64.453125
5377,-64.453125
5378,-64.453125
5379,-64.453125
5380,-66.406250
5381,-62.500000
5382,-64.453125
5383,-64.453125
5384,-64.453125
5385,-64.453125
5386,-64.453125
5387,-64.453125
5388,-64.453125
5389,-64.453125
5390,-64.453125
5391,-64.453125
5392,-64.453125
5393,-64.453125
5394,-66.406250
5395,-64.453125
5396,-64.453125
5397,-64.453125
5398,-66.406250
5399,-62.500000
5400,-64.453125
5401,-64.453125
5402,-64.453125
5403,-66.406250
5404,-64.453125
5405,-64.453125
5406,-64.453125
5407,-64.453125
5408,-64.453125
5409,-66.406250
5410,-64.453125
5411,-64.453125
5412,-64.453125
5413,-64.453125
5414,-66.406250
5415,-64.453125
5416,-64.453125
5417,-66.406250
5418,-64.453125
5419,-64.453125
5420,-64.453125
5421,-62.500000
5422,-66.406250
5423,-64.453125
5424,-66.406250
5425,-60.546875
5426,-68.359375
5427,-64.453125
5428,-64.453125
5429,-64.453125
5430,-58.593750
5431,-64.453125
5432,-64.453125
5433,-64.453125
5434,-64.453125
5435,-64.453125
5436,-64.453125
5437,-62.500000
5438,-64.453125
5439,-64.453125
5440,-64.453125
5441,-64.453125
5442,-66.406250
5443,-64.453125
5444,-64.453125
5445,-64.453125
5446,-64.453125
5447,-64.453125
5448,-62.500000
5449,-64.453125
5450,-62.500000
5451,-64.453125
5452,-66.406250
5453,-66.406250
5454,-66.406250
5455,-64.453125
5456,-64.453125
5457,-64.453125
5458,-64.453125
5459,-56.640625
5460,-64.453125
5461,-66.406250
5462,-64.453125
5463,-64.453125
5464,-64.453125
5465,-64.453125
5466,-64.453125
5467,-64.453125
5468,-64.453125
5469,-64.453125
5470,-64.453125
5471,-64.453125
5472,-64.453125
5473,-64.453125
5474,-64.453125
5475,-66.406250
5476,-62.500000
5477,-64.453125
5478,-64.453125
5479,-64.453125
5480,-64.453125
5481,-64.453125
5482,-64.453125
5483,-62.500000
5484,-62.500000
5485,-64.453125
5486,-64.453125
5487,-64.453125
5488,-64.453125
5489,-64.453125
5490,-64.453125
5491,-64.453125
5492,-64.453125
5493,-64.453125
5494,-64.453125
5495,-64.453125
5496,-62.500000
5497,-64.453125
5498,-64.453125
5499,-64.453125
5500,-64.453125
5501,-64.453125
5502,-64.453125
5503,-64.453125
5504,-64.453125
5505,-64.453125
5506,-64.453125
5507,-62.500000
5508,-62.500000
5509,-64.453125
5510,-64.453125
5511,-64.453125
5512,-64.453125
5513,-64.453125
5514,-64.453125
5515,-64.453125
5516,-64.453125
5517,-64.453125
5518,-64.453125
5519,-62.500000
5520,-70.312500
5521,-64.453125
5522,-62.500000
5523,-64.453125
5524,-64.453125
5525,-64.453125
5526,-64.453125
5527,-64.453125
5528,-64.453125
5529,-66.406250
5530,-60.546875
5531,-64.453125
5532,-62.500000
5533,-62.500000
5534,-64.453125
5535,-62.500000
5536,-62.500000
5537,-64.453125
5538,-60.546875
5539,-64.453125
5540,-62.500000
5541,-62.500000
5542,-62.500000
5543,-64.453125
5544,-60.546875
5545,-62.500000
5546,-60.546875
5547,-62.500000
5548,-62.500000
5549,-60.546875
5550,-62.500000
5551,-64.453125
5552,-64.453125
5553,-62.500000
5554,-60.546875
5555,-62.500000
5556,-62.500000
5557,-62.500000
5558,-64.453125
5559,-64.453125
5560,-60.546875
5561,-60.546875
5562,-60.546875
5563,-64.453125
5564,-60.546875
5565,-64.453125
5566,-64.453125
5567,-62.500000
5568,-64.453125
5569,-60.546875
5570,-64.453125
5571,-60.546875
5572,-62.500000
5573,-64.453125
5574,-56.640625
5575,-64.453125
5576,-62.500000
5577,-62.500000
5578,-64.453125
5579,-62.500000
5580,-62.500000
5581,-64.453125
5582,-62.500000
5583,-60.546875
5584,-60.546875
5585,-60.546875
5586,-64.453125
5587,-60.546875
5588,-62.500000
5589,-62.500000
5590,-62.500000
5591,-64.453125
5592,-62.500000
5593,-66.406250
5594,-62.500000
5595,-62.500000
5596,-62.500000
5597,-64.453125
5598,-66.406250
5599,-60.546875
5600,-64.453125
5601,-64.453125
5602,-64.453125
5603,-62.500000
5604,-64.453125
5605,-64.453125
5606,-64.453125
5607,-64.453125
5608,-64.453125
5609,-64.453125
5610,-64.453125
5611,-60.546875
5612,-64.453125
5613,-64.453125
5614,-68.359375
5615,-64.453125
5616,-64.453125
5617,-64.453125
5618,-64.453125
5619,-64.453125
5620,-64.453125
5621,-64.453125
5622,-64.453125
5623,-64.453125
5624,-64.453125
5625,-66.406250
5626,-60.546875
5627,-64.453125
5628,-62.500000
5629,-64.453125
5630,-64.453125
5631,-62.500000
5632,-66.406250
5633,-62.500000
5634,-64.453125
5635,-64.453125
5636,-62.500000
5637,-64.453125
5638,-64.453125
5639,-66.406250
5640,-62.500000
5641,-62.500000
5642,-62.500000
5643,-62.500000
5644,-64.453125
5645,-64.453125
5646,-62.500000
5647,-64.453125
5648,-64.453125
5649,-64.453125
5650,-64.453125
5651,-64.453125
5652,-62.500000
5653,-62.500000
5654,-64.453125
5655,-64.453125
5656,-62.500000
5657,-64.453125
5658,-62.500000
5659,-66.406250
5660,-60.546875
5661,-64.453125
5662,-64.453125
5663,-62.500000
5664,-62.500000
5665,-62.500000
5666,-64.453125
5667,-64.453125
5668,-64.453125
5669,-64.453125
5670,-62.500000
5671,-64.453125
5672,-60.546875
5673,-64.453125
5674,-64.453125
5675,-64.453125
5676,-64.453125
5677,-64.453125
5678,-64.453125
5679,-64.453125
5680,-60.546875
5681,-64.453125
5682,-62.500000
5683,-64.453125
5684,-64.453125
5685,-62.500000
5686,-62.500000
5687,-64.453125
5688,-64.453125
5689,-64.453125
5690,-64.453125
5691,-64.453125
5692,-64.453125
5693,-62.500000
5694,-64.453125
5695,-62.500000
5696,-60.546875
5697,-60.546875
5698,-60.546875
5699,-60.546875
5700,-56.640625
5701,-56.640625
5702,-54.687500
5703,-54.687500
5704,-48.828125
5705,-48.828125
5706,-48.828125
5707,-44.921875
5708,-48.828125
5709,-44.921875
5710,-44.921875
5711,-42.968750
5712,-39.062500
5713,-44.921875
5714,-35.156250
5715,-37.109375
5716,-35.156250
5717,-37.109375
5718,-35.156250
5719,-35.156250
5720,-39.062500
5721,-39.062500
5722,-33.203125
5723,-41.015625
5724,-39.062500
5725,-41.015625
5726,-41.015625
5727,-44.921875
5728,-44.921875
5729,-41.015625
5730,-44.921875
5731,-41.015625
5732,-44.921875
5733,-46.875000
5734,-46.875000
5735,-48.828125
5736,-48.828125
5737,-48.828125
5738,-52.734375
5739,-50.781250
5740,-52.734375
5741,-54.687500
5742,-52.734375
5743,-54.687500
5744,-41.015625
5745,-56.640625
5746,-56.640625
5747,-60.546875
5748,-60.546875
5749,-60.546875
5750,-62.500000
5751,-60.546875
5752,-60.546875
5753,-54.687500
5754,-64.453125
5755,-62.500000
5756,-64.453125
5757,-66.406250
5758,-64.453125
5759,-64.453125
5760,-62.500000
5761,-66.406250
5762,-72.265625
5763,-64.453125
5764,-66.406250
5765,-64.453125
5766,-66.406250
5767,-66.406250
5768,-66.406250
5769,-68.359375
5770,-64.453125
5771,-64.453125
5772,-64.453125
5773,-66.406250
5774,-64.453125
5775,-66.406250
5776,-66.406250
5777,-64.453125
5778,-66.406250
5779,-66.406250
5780,-64.453125
5781,-64.453125
5782,-66.406250
5783,-64.453125
5784,-64.453125
5785,-66.406250
5786,-60.546875
5787,-64.453125
5788,-60.546875
5789,-68.359375
5790,-60.546875
5791,-60.546875
5792,-60.546875
5793,-56.640625
5794,-56.640625
5795,-52.734375
5796,-52.734375
5797,-48.828125
5798,-46.875000
5799,-46.875000
5800,-41.015625
5801,-41.015625
5802,-41.015625
5803,-41.015625
5804,-39.062500
5805,-33.203125
5806,-33.203125
5807,-31.250000
5808,-27.343750
5809,-25.390625
5810,-25.390625
5811,-23.437500
5812,-21.484375
5813,-19.531250
5814,-19.531250
5815,-15.625000
5816,-15.625000
5817,-13.671875
5818,-13.671875
5819,-13.671875
5820,-9.765625
5821,-7.812500
5822,-9.765625
5823,-7.812500
5824,-7.812500
5825,-5.859375
5826,-9.765625
5827,-7.812500
5828,-7.812500
5829,-3.906250
5830,-7.812500
5831,-5.859375
5832,-3.906250
5833,-3.906250
5834,-5.859375
5835,-5.859375
5836,-3.906250
5837,-1.953125
5838,-1.953125
5839,-5.859375
5840,-3.906250
5841,-3.906250
5842,-3.906250
5843,-3.906250
5844,-1.953125
5845,-3.906250
5846,-5.859375
5847,-3.906250
5848,-3.906250
5849,-5.859375
5850,-3.906250
5851,-5.859375
5852,-1.953125
5853,-7.812500
5854,-5.859375
5855,-5.859375
5856,-9.765625
5857,-9.765625
5858,-15.625000
5859,-13.671875
5860,-17.578125
5861,-23.437500
5862,-19.531250
5863,-23.437500
5864,-21.484375
5865,-25.390625
5866,-25.390625
5867,-29.296875
5868,-31.250000
5869,-31.250000
5870,-41.015625
5871,-33.203125
5872,-35.156250
5873,-37.109375
5874,-37.109375
5875,-41.015625
5876,-39.062500
5877,-41.015625
5878,-44.921875
5879,-41.015625
5880,-42.968750
5881,-44.921875
5882,-41.015625
5883,-46.875000
5884,-44.921875
5885,-44.921875
5886,-48.828125
5887,-46.875000
5888,-46.875000
5889,-44.921875
5890,-48.828125
5891,-48.828125
5892,-46.875000
5893,-50.781250
5894,-46.875000
5895,-50.781250
5896,-48.828125
5897,-48.828125
5898,-48.828125
5899,-48.828125
5900,-52.734375
5901,-48.828125
5902,-50.781250
5903,-48.828125
5904,-48.828125
5905,-50.781250
5906,-50.781250
5907,-50.781250
5908,-52.734375
5909,-54.687500
5910,-50.781250
5911,-50.781250
5912,-50.781250
5913,-52.734375
5914,-54.687500
5915,-52.734375
5916,-52.734375
5917,-52.734375
5918,-52.734375
5919,-52.734375
5920,-54.687500
5921,-54.687500
5922,-54.687500
5923,-56.640625
5924,-56.640625
5925,-54.687500
5926,-52.734375
5927,-52.734375
5928,-54.687500
5929,-56.640625
5930,-52.734375
5931,-54.687500
5932,-56.640625
5933,-54.687500
5934,-56.640625
5935,-54.687500
5936,-54.687500
5937,-56.640625
5938,-54.687500
5939,-56.640625
5940,-56.640625
5941,-56.640625
5942,-54.687500
5943,-56.640625
5944,-56.640625
5945,-56.640625
5946,-56.640625
5947,-60.546875
5948,-56.640625
5949,-60.546875
5950,-56.640625
5951,-56.640625
5952,-60.546875
5953,-56.640625
5954,-58.593750
5955,-56.640625
5956,-54.687500
5957,-60.546875
5958,-56.640625
5959,-56.640625
5960,-56.640625
5961,-56.640625
5962,-56.640625
5963,-56.640625
5964,-56.640625
5965,-56.640625
5966,-60.546875
5967,-56.640625
5968,-58.593750
5969,-56.640625
5970,-56.640625
5971,-60.546875
5972,-56.640625
5973,-56.640625
5974,-58.593750
5975,-56.640625
5976,-56.640625
5977,-60.546875
5978,-56.640625
5979,-56.640625
5980,-56.640625
5981,-56.640625
5982,-60.546875
5983,-56.640625
5984,-60.546875
5985,-56.640625
5986,-60.546875
5987,-56.640625
5988,-56.640625
5989,-60.546875
5990,-60.546875
5991,-60.546875
5992,-58.593750
5993,-56.640625
5994,-60.546875
5995,-56.640625
5996,-60.546875
5997,-60.546875
5998,-56.640625
5999,-60.546875
6000,-60.546875
6001,-56.640625
6002,-60.546875
6003,-58.593750
6004,-56.640625
6005,-56.640625
6006,-58.593750
6007,-56.640625
6008,-60.546875
6009,-60.546875
6010,-60.546875
6011,-58.593750
6012,-60.546875
6013,-60.546875
6014,-60.546875
6015,-56.640625
6016,-56.640625
6017,-60.546875
6018,-60.546875
6019,-60.546875
6020,-58.593750
6021,-60.546875
6022,-60.546875
6023,-60.546875
6024,-60.546875
6025,-60.546875
6026,-58.593750
6027,-60.546875
6028,-60.546875
6029,-60.546875
6030,-56.640625
6031,-60.546875
6032,-56.640625
6033,-60.546875
6034,-60.546875
6035,-60.546875
6036,-56.640625
6037,-58.593750
6038,-56.640625
6039,-60.546875
6040,-56.640625
6041,-60.546875
6042,-58.593750
6043,-54.687500
6044,-60.546875
6045,-56.640625
6046,-60.546875
6047,-58.593750
6048,-60.546875
6049,-60.546875
6050,-60.546875
6051,-60.546875
6052,-56.640625
6053,-60.546875
6054,-56.640625
6055,-60.546875
6056,-60.546875
6057,-60.546875
6058,-58.593750
6059,-56.640625
6060,-60.546875
6061,-56.640625
6062,-58.593750
6063,-60.546875
6064,-56.640625
6065,-56.640625
6066,-62.500000
6067,-56.640625
6068,-60.546875
6069,-56.640625
6070,-58.593750
6071,-60.546875
6072,-58.593750
6073,-60.546875
6074,-60.546875
6075,-56.640625
6076,-60.546875
6077,-56.640625
6078,-56.640625
6079,-56.640625
6080,-56.640625
6081,-60.546875
6082,-56.640625
6083,-56.640625
6084,-54.687500
6085,-56.640625
6086,-54.687500
6087,-52.734375
6088,-56.640625
6089,-48.828125
6090,-48.828125
6091,-50.781250
6092,-48.828125
6093,-46.875000
6094,-44.921875
6095,-44.921875
6096,-42.968750
6097,-41.015625
6098,-39.062500
6099,-37.109375
6100,-37.109375
6101,-37.109375
6102,-33.203125
6103,-33.203125
6104,-33.203125
6105,-29.296875
6106,-25.390625
6107,-23.437500
6108,-21.484375
6109,-19.531250
6110,-19.531250
6111,-17.578125
6112,-17.578125
6113,-17.578125
6114,-13.671875
6115,-13.671875
6116,-9.765625
6117,-9.765625
6118,-9.765625
6119,-9.765625
6120,-9.765625
6121,-7.812500
6122,-5.859375
6123,-7.812500
6124,-5.859375
6125,-3.906250
6126,-9.765625
6127,-1.953125
6128,-3.906250
6129,-1.953125
6130,1.953125
6131,-1.953125
6132,0.000000
6133,-1.953125
6134,-1.953125
6135,-3.906250
6136,-1.953125
6137,-1.953125
6138,-1.953125
6139,-3.906250
6140,0.000000
6141,-1.953125
6142,0.000000
6143,-1.953125
6144,-1.953125
6145,0.000000
6146,-1.953125
6147,-1.953125
6148,-13.671875
6149,-1.953125
6150,-1.953125
6151,-3.906250
6152,-1.953125
6153,-1.953125
6154,-1.953125
6155,0.000000
6156,-1.953125
6157,-1.953125
6158,-1.953125
6159,-1.953125
6160,-1.953125
6161,-3.906250
6162,-3.906250
6163,-1.953125
6164,-1.953125
6165,-3.906250
6166,-19.531250
6167,-9.765625
6168,-13.671875
6169,-13.671875
6170,-15.625000
6171,-19.531250
6172,-21.484375
6173,-29.296875
6174,-29.296875
6175,-29.296875
6176,-35.156250
6177,-35.156250
6178,-41.015625
6179,-41.015625
6180,-42.968750
6181,-44.921875
6182,-46.875000
6183,-48.828125
6184,-50.781250
6185,-54.687500
6186,-54.687500
6187,-54.687500
6188,-56.640625
6189,-56.640625
6190,-60.546875
6191,-60.546875
6192,-60.546875
6193,-60.546875
6194,-62.500000
6195,-60.546875
6196,-64.453125
6197,-60.546875
6198,-62.500000
6199,-62.500000
6200,-60.546875
6201,-64.453125
6202,-62.500000
6203,-64.453125
6204,-64.453125
6205,-64.453125
6206,-64.453125
6207,-60.546875
6208,-62.500000
6209,-64.453125
6210,-64.453125
6211,-64.453125
6212,-62.500000
6213,-64.453125
6214,-64.453125
6215,-62.500000
6216,-62.500000
6217,-64.453125
6218,-64.453125
6219,-64.453125
6220,-60.546875
6221,-64.453125
6222,-62.500000
6223,-62.500000
6224,-64.453125
6225,-62.500000
6226,-64.453125
6227,-62.500000
6228,-64.453125
6229,-62.500000
6230,-62.500000
6231,-64.453125
6232,-62.500000
6233,-64.453125
6234,-60.546875
6235,-64.453125
6236,-64.453125
6237,-62.500000
6238,-64.453125
6239,-64.453125
6240,-62.500000
6241,-64.453125
6242,-62.500000
6243,-64.453125
6244,-64.453125
6245,-64.453125
6246,-64.453125
6247,-60.546875
6248,-62.500000
6249,-64.453125
6250,-62.500000
6251,-62.500000
6252,-60.546875
6253,-64.453125
6254,-64.453125
6255,-64.453125
6256,-62.500000
6257,-64.453125
6258,-64.453125
6259,-64.453125
6260,-64.453125
6261,-64.453125
6262,-66.406250
6263,-64.453125
6264,-62.500000
6265,-66.406250
6266,-64.453125
6267,-64.453125
6268,-62.500000
6269,-64.453125
6270,-64.453125
6271,-64.453125
6272,-66.406250
6273,-62.500000
6274,-64.453125
6275,-64.453125
6276,-62.500000
6277,-64.453125
6278,-64.453125
6279,-64.453125
6280,-62.500000
6281,-64.453125
6282,-60.546875
6283,-72.265625
6284,-64.453125
6285,-62.500000
6286,-62.500000
6287,-60.546875
6288,-60.546875
6289,-62.500000
6290,-60.546875
6291,-58.593750
6292,-70.312500
6293,-60.546875
6294,-60.546875
6295,-58.593750
6296,-58.593750
6297,-56.640625
6298,-56.640625
6299,-56.640625
6300,-56.640625
6301,-54.687500
6302,-54.687500
6303,-56.640625
6304,-54.687500
6305,-56.640625
6306,-56.640625
6307,-56.640625
6308,-56.640625
6309,-54.687500
6310,-68.359375
6311,-54.687500
6312,-56.640625
6313,-56.640625
6314,-54.687500
6315,-56.640625
6316,-54.687500
6317,-54.687500
6318,-56.640625
6319,-56.640625
6320,-56.640625
6321,-54.687500
6322,-56.640625
6323,-56.640625
6324,-56.640625
6325,-56.640625
6326,-56.640625
6327,-56.640625
6328,-56.640625
6329,-56.640625
6330,-58.593750
6331,-60.546875
6332,-56.640625
6333,-60.546875
6334,-56.640625
6335,-60.546875
6336,-60.546875
6337,-56.640625
6338,-62.500000
6339,-60.546875
6340,-62.500000
6341,-62.500000
6342,-60.546875
6343,-60.546875
6344,-60.546875
6345,-64.453125
6346,-62.500000
6347,-64.453125
6348,-64.453125
6349,-62.500000
6350,-62.500000
6351,-64.453125
6352,-70.312500
6353,-64.453125
6354,-64.453125
6355,-64.453125
6356,-64.453125
6357,-62.500000
6358,-64.453125
6359,-62.500000
6360,-62.500000
6361,-64.453125
6362,-64.453125
6363,-64.453125
6364,-62.500000
6365,-64.453125
6366,-62.500000
6367,-64.453125
6368,-62.500000
6369,-60.546875
6370,-64.453125
6371,-60.546875
6372,-64.453125
6373,-66.406250
6374,-62.500000
6375,-64.453125
6376,-60.546875
6377,-62.500000
6378,-56.640625
6379,-60.546875
6380,-62.500000
6381,-60.546875
6382,-62.500000
6383,-60.546875
6384,-60.546875
6385,-60.546875
6386,-64.453125
6387,-60.546875
6388,-62.500000
6389,-60.546875
6390,-62.500000
6391,-60.546875
6392,-62.500000
6393,-62.500000
6394,-62.500000
6395,-62.500000
6396,-64.453125
6397,-60.546875
6398,-60.546875
6399,-60.546875
6400,-60.546875
6401,-60.546875
6402,-62.500000
6403,-62.500000
6404,-60.546875
6405,-62.500000
6406,-62.500000
6407,-60.546875
6408,-64.453125
6409,-60.546875
6410,-64.453125
6411,-62.500000
6412,-60.546875
6413,-62.500000
6414,-60.546875
6415,-62.500000
6416,-60.546875
6417,-62.500000
6418,-64.453125
6419,-60.546875
6420,-64.453125
6421,-60.546875
6422,-64.453125
6423,-64.453125
6424,-64.453125
6425,-64.453125
6426,-64.453125
6427,-64.453125
6428,-62.500000
6429,-62.500000
6430,-62.500000
6431,-64.453125
6432,-60.546875
6433,-62.500000
6434,-62.500000
6435,-64.453125
6436,-64.453125
6437,-62.500000
6438,-66.406250
6439,-60.546875
6440,-64.453125
6441,-64.453125
6442,-62.500000
6443,-64.453125
6444,-60.546875
6445,-64.453125
6446,-60.546875
6447,-62.500000
6448,-64.453125
6449,-64.453125
6450,-64.453125
6451,-64.453125
6452,-64.453125
6453,-64.453125
6454,-62.500000
6455,-62.500000
6456,-62.500000
6457,-62.500000
6458,-62.500000
6459,-64.453125
6460,-64.453125
6461,-62.500000
6462,-64.453125
6463,-64.453125
6464,-64.453125
6465,-64.453125
6466,-60.546875
6467,-52.734375
6468,-64.453125
6469,-64.453125
6470,-66.406250
6471,-62.500000
6472,-64.453125
6473,-64.453125
6474,-62.500000
6475,-64.453125
6476,-62.500000
6477,-66.406250
6478,-64.453125
6479,-64.453125
6480,-64.453125
6481,-64.453125
6482,-64.453125
6483,-62.500000
6484,-64.453125
6485,-68.359375
6486,-62.500000
6487,-64.453125
6488,-64.453125
6489,-62.500000
6490,-64.453125
6491,-62.500000
6492,-64.453125
6493,-64.453125
6494,-72.265625
6495,-64.453125
6496,-62.500000
6497,-64.453125
6498,-64.453125
6499,-64.453125
6500,-64.453125
6501,-62.500000
6502,-64.453125
6503,-72.265625
6504,-64.453125
6505,-62.500000
6506,-64.453125
6507,-64.453125
6508,-64.453125
6509,-64.453125
6510,-64.453125
6511,-64.453125
6512,-64.453125
6513,-64.453125
6514,-64.453125
6515,-64.453125
6516,-66.406250
6517,-62.500000
6518,-64.453125
6519,-64.453125
6520,-64.453125
6521,-66.406250
6522,-62.500000
6523,-66.406250
6524,-64.453125
6525,-64.453125
6526,-64.453125
6527,-64.453125
6528,-66.406250
6529,-64.453125
6530,-66.406250
6531,-64.453125
6532,-66.406250
6533,-64.453125
6534,-64.453125
6535,-64.453125
6536,-60.546875
6537,-66.406250
6538,-62.500000
6539,-60.546875
6540,-64.453125
6541,-64.453125
6542,-64.453125
6543,-64.453125
6544,-64.453125
6545,-64.453125
6546,-64.453125
6547,-64.453125
6548,-64.453125
6549,-64.453125
6550,-64.453125
6551,-64.453125
6552,-72.265625
6553,-64.453125
6554,-64.453125
6555,-64.453125
6556,-64.453125
6557,-60.546875
6558,-64.453125
6559,-66.406250
6560,-64.453125
6561,-64.453125
6562,-64.453125
6563,-64.453125
6564,-66.406250
6565,-64.453125
6566,-64.453125
6567,-62.500000
6568,-62.500000
6569,-64.453125
6570,-64.453125
6571,-64.453125
6572,-64.453125
6573,-64.453125
6574,-64.453125
6575,-64.453125
6576,-66.406250
6577,-64.453125
6578,-64.453125
6579,-64.453125
6580,-64.453125
6581,-64.453125
6582,-64.453125
6583,-64.453125
6584,-64.453125
6585,-64.453125
6586,-64.453125
6587,-64.453125
6588,-64.453125
6589,-64.453125
6590,-64.453125
6591,-64.453125
6592,-64.453125
6593,-62.500000
6594,-64.453125
6595,-62.500000
6596,-64.453125
6597,-64.453125
6598,-62.500000
6599,-64.453125
6600,-64.453125
6601,-60.546875
6602,-64.453125
6603,-64.453125
6604,-66.406250
6605,-64.453125
6606,-64.453125
6607,-64.453125
6608,-62.500000
6609,-64.453125
6610,-64.453125
6611,-64.453125
6612,-64.453125
6613,-62.500000
6614,-66.406250
6615,-64.453125
6616,-64.453125
6617,-64.453125
6618,-64.453125
6619,-64.453125
6620,-64.453125
6621,-64.453125
6622,-64.453125
6623,-64.453125
6624,-64.453125
6625,-64.453125
6626,-64.453125
6627,-66.406250
6628,-64.453125
6629,-62.500000
6630,-64.453125
6631,-62.500000
6632,-64.453125
6633,-62.500000
6634,-64.453125
6635,-64.453125
6636,-64.453125
6637,-64.453125
6638,-62.500000
6639,-62.500000
6640,-64.453125
6641,-64.453125
6642,-48.828125
6643,-64.453125
6644,-62.500000
6645,-62.500000
6646,-64.453125
6647,-60.546875
6648,-64.453125
6649,-60.546875
6650,-64.453125
6651,-62.500000
6652,-64.453125
6653,-60.546875
6654,-64.453125
6655,-62.500000
6656,-64.453125
6657,-64.453125
6658,-64.453125
6659,-64.453125
6660,-64.453125
6661,-62.500000
6662,-66.406250
6663,-62.500000
6664,-64.453125
6665,-64.453125
6666,-64.453125
6667,-64.453125
6668,-64.453125
6669,-64.453125
6670,-62.500000
6671,-64.453125
6672,-62.500000
6673,-64.453125
6674,-62.500000
6675,-62.500000
6676,-62.500000
6677,-64.453125
6678,-62.500000
6679,-64.453125
6680,-64.453125
6681,-60.546875
6682,-64.453125
6683,-60.546875
6684,-62.500000
6685,-62.500000
6686,-62.500000
6687,-64.453125
6688,-64.453125
6689,-62.500000
6690,-64.453125
6691,-60.546875
6692,-60.546875
6693,-64.453125
6694,-60.546875
6695,-64.453125
6696,-64.453125
6697,-64.453125
6698,-62.500000
6699,-64.453125
6700,-64.453125
6701,-62.500000
6702,-64.453125
6703,-60.546875
6704,-64.453125
6705,-64.453125
6706,-62.500000
6707,-64.453125
6708,-62.500000
6709,-64.453125
6710,-60.546875
6711,-64.453125
6712,-64.453125
6713,-64.453125
6714,-64.453125
6715,-60.546875
6716,-60.546875
6717,-60.546875
6718,-56.640625
6719,-60.546875
6720,-56.640625
6721,-54.687500
6722,-50.781250
6723,-54.687500
6724,-54.687500
6725,-52.734375
6726,-46.875000
6727,-48.828125
6728,-46.875000
6729,-46.875000
6730,-44.921875
6731,-41.015625
6732,-41.015625
6733,-41.015625
6734,-42.968750
6735,-41.015625
6736,-41.015625
6737,-41.015625
6738,-41.015625
6739,-41.015625
6740,-41.015625
6741,-39.062500
6742,-41.015625
6743,-41.015625
6744,-44.921875
6745,-44.921875
6746,-41.015625
6747,-44.921875
6748,-44.921875
6749,-44.921875
6750,-50.781250
6751,-46.875000
6752,-48.828125
6753,-48.828125
6754,-50.781250
6755,-48.828125
6756,-50.781250
6757,-54.687500
6758,-48.828125
6759,-48.828125
6760,-54.687500
6761,-54.687500
6762,-54.687500
6763,-54.687500
6764,-56.640625
6765,-52.734375
6766,-58.593750
6767,-56.640625
6768,-56.640625
6769,-60.546875
6770,-56.640625
6771,-62.500000
6772,-60.546875
6773,-58.593750
6774,-62.500000
6775,-60.546875
6776,-62.500000
6777,-54.687500
6778,-62.500000
6779,-64.453125
6780,-64.453125
6781,-64.453125
6782,-66.406250
6783,-60.546875
6784,-64.453125
6785,-64.453125
6786,-62.500000
6787,-66.406250
6788,-64.453125
6789,-64.453125
6790,-64.453125
6791,-66.406250
6792,-64.453125
6793,-64.453125
6794,-64.453125
6795,-72.265625
6796,-62.500000
6797,-64.453125
6798,-64.453125
6799,-64.453125
6800,-66.406250
6801,-64.453125
6802,-66.406250
6803,-64.453125
6804,-66.406250
6805,-64.453125
6806,-64.453125
6807,-66.406250
6808,-64.453125
6809,-64.453125
6810,-66.406250
6811,-64.453125
6812,-64.453125
6813,-64.453125
6814,-68.359375
6815,-64.453125
6816,-64.453125
6817,-66.406250
6818,-64.453125
6819,-66.406250
6820,-64.453125
6821,-64.453125
6822,-60.546875
6823,-64.453125
6824,-64.453125
6825,-64.453125
6826,-62.500000
6827,-64.453125
6828,-64.453125
6829,-64.453125
6830,-62.500000
6831,-60.546875
6832,-64.453125
6833,-62.500000
6834,-64.453125
6835,-60.546875
6836,-60.546875
6837,-60.546875
6838,-60.546875
6839,-56.640625
6840,-60.546875
6841,-60.546875
6842,-56.640625
6843,-56.640625
6844,-56.640625
6845,-52.734375
6846,-52.734375
6847,-48.828125
6848,-48.828125
6849,-46.875000
6850,-44.921875
6851,-46.875000
6852,-44.921875
6853,-41.015625
6854,-41.015625
6855,-41.015625
6856,-39.062500
6857,-39.062500
6858,-35.156250
6859,-33.203125
6860,-33.203125
6861,-31.250000
6862,-31.250000
6863,-27.343750
6864,-27.343750
6865,-25.390625
6866,-25.390625
6867,-21.484375
6868,-19.531250
6869,-21.484375
6870,-19.531250
6871,-21.484375
6872,-17.578125
6873,-17.578125
6874,-17.578125
6875,-17.578125
6876,-15.625000
6877,-13.671875
6878,-13.671875
6879,-13.671875
6880,-13.671875
6881,-15.625000
6882,-9.765625
6883,-9.765625
6884,-9.765625
6885,-3.906250
6886,-7.812500
6887,-9.765625
6888,-7.812500
6889,-9.765625
6890,-5.859375
6891,-5.859375
6892,-7.812500
6893,-5.859375
6894,-7.812500
6895,-7.812500
6896,-5.859375
6897,-7.812500
6898,-3.906250
6899,-7.812500
6900,-3.906250
6901,-5.859375
6902,-5.859375
6903,-5.859375
6904,-3.906250
6905,-3.906250
6906,-5.859375
6907,5.859375
6908,-1.953125
6909,-7.812500
6910,-5.859375
6911,-5.859375
6912,-5.859375
6913,-5.859375
6914,-3.906250
6915,-3.906250
6916,-5.859375
6917,-3.906250
6918,-5.859375
6919,-3.906250
6920,-3.906250
6921,-7.812500
6922,-3.906250
6923,-7.812500
6924,-5.859375
6925,-9.765625
6926,-7.812500
6927,-5.859375
6928,-7.812500
6929,-9.765625
6930,-11.718750
6931,-15.625000
6932,-13.671875
6933,-15.625000
6934,-9.765625
6935,-19.531250
6936,-21.484375
6937,-19.531250
6938,-25.390625
6939,-25.390625
6940,-25.390625
6941,-29.296875
6942,-25.390625
6943,-29.296875
6944,-29.296875
6945,-31.250000
6946,-31.250000
6947,-33.203125
6948,-35.156250
6949,-35.156250
6950,-35.156250
6951,-39.062500
6952,-29.296875
6953,-41.015625
6954,-41.015625
6955,-39.062500
6956,-41.015625
6957,-39.062500
6958,-42.968750
6959,-41.015625
6960,-41.015625
6961,-44.921875
6962,-44.921875
6963,-44.921875
6964,-41.015625
6965,-46.875000
6966,-41.015625
6967,-44.921875
6968,-41.015625
6969,-44.921875
6970,-46.875000
6971,-44.921875
6972,-44.921875
6973,-44.921875
6974,-44.921875
6975,-44.921875
6976,-44.921875
6977,-44.921875
6978,-44.921875
6979,-41.015625
6980,-44.921875
6981,-46.875000
6982,-44.921875
6983,-46.875000
6984,-44.921875
6985,-46.875000
6986,-44.921875
6987,-44.921875
6988,-56.640625
6989,-44.921875
6990,-46.875000
6991,-44.921875
6992,-48.828125
6993,-46.875000
6994,-44.921875
6995,-46.875000
6996,-44.921875
6997,-48.828125
6998,-46.875000
6999,-42.968750
7000,-46.875000
7001,-44.921875
7002,-44.921875
7003,-46.875000
7004,-48.828125
7005,-44.921875
7006,-52.734375
7007,-46.875000
7008,-44.921875
7009,-50.781250
7010,-44.921875
7011,-50.781250
7012,-44.921875
7013,-44.921875
7014,-48.828125
7015,-46.875000
7016,-46.875000
7017,-48.828125
7018,-46.875000
7019,-48.828125
7020,-44.921875
7021,-48.828125
7022,-44.921875
7023,-48.828125
7024,-48.828125
7025,-44.921875
7026,-48.828125
7027,-44.921875
7028,-44.921875
7029,-48.828125
7030,-48.828125
7031,-46.875000
7032,-48.828125
7033,-37.109375
7034,-48.828125
7035,-48.828125
7036,-48.828125
7037,-50.781250
7038,-46.875000
7039,-46.875000
7040,-46.875000
7041,-46.875000
7042,-48.828125
7043,-44.921875
7044,-46.875000
7045,-48.828125
7046,-48.828125
7047,-48.828125
7048,-48.828125
7049,-44.921875
7050,-46.875000
7051,-48.828125
7052,-48.828125
7053,-44.921875
7054,-46.875000
7055,-46.875000
7056,-44.921875
7057,-46.875000
7058,-44.921875
7059,-44.921875
7060,-41.015625
7061,-41.015625
7062,-41.015625
7063,-41.015625
7064,-41.015625
7065,-41.015625
7066,-41.015625
7067,-41.015625
7068,-39.062500
7069,-39.062500
7070,-39.062500
7071,-37.109375
7072,-33.203125
7073,-33.203125
7074,-35.156250
7075,-35.156250
7076,-33.203125
7077,-33.203125
7078,-33.203125
7079,-31.250000
7080,-31.250000
7081,-25.390625
7082,-25.390625
7083,-23.437500
7084,-21.484375
7085,-19.531250
7086,-19.531250
7087,-17.578125
7088,-15.625000
7089,-17.578125
7090,-13.671875
7091,-13.671875
7092,-11.718750
7093,-9.765625
7094,-11.718750
7095,-9.765625
7096,-7.812500
7097,-9.765625
7098,-5.859375
7099,-7.812500
7100,-7.812500
7101,-3.906250
7102,-5.859375
7103,-3.906250
7104,-5.859375
7105,-1.953125
7106,-3.906250
7107,-3.906250
7108,-1.953125
7109,-3.906250
7110,-1.953125
7111,-1.953125
7112,-1.953125
7113,-1.953125
7114,-3.906250
7115,-1.953125
7116,-5.859375
7117,-9.765625
7118,-9.765625
7119,-13.671875
7120,-13.671875
7121,-17.578125
7122,-21.484375
7123,-21.484375
7124,-21.484375
7125,-25.390625
7126,-29.296875
7127,-29.296875
7128,-33.203125
7129,-37.109375
7130,-39.062500
7131,-39.062500
7132,-41.015625
7133,-44.921875
7134,-48.828125
7135,-46.875000
7136,-48.828125
7137,-52.734375
7138,-56.640625
7139,-54.687500
7140,-56.640625
7141,-60.546875
7142,-60.546875
7143,-56.640625
7144,-60.546875
7145,-60.546875
7146,-60.546875
7147,-62.500000
7148,-64.453125
7149,-62.500000
7150,-64.453125
7151,-62.500000
7152,-64.453125
7153,-64.453125
7154,-62.500000
7155,-64.453125
7156,-64.453125
7157,-64.453125
7158,-64.453125
7159,-62.500000
7160,-64.453125
7161,-64.453125
7162,-62.500000
7163,-62.500000
7164,-64.453125
7165,-62.500000
7166,-64.453125
7167,-64.453125
7168,-64.453125
7169,-64.453125
7170,-64.453125
7171,-64.453125
7172,-64.453125
7173,-64.453125
7174,-64.453125
7175,-64.453125
7176,-66.406250
7177,-62.500000
7178,-60.546875
7179,-64.453125
7180,-62.500000
7181,-66.406250
7182,-64.453125
7183,-64.453125
7184,-64.453125
7185,-64.453125
7186,-62.500000
7187,-64.453125
7188,-64.453125
7189,-64.453125
7190,-64.453125
7191,-60.546875
7192,-64.453125
7193,-62.500000
7194,-64.453125
7195,-64.453125
7196,-62.500000
7197,-64.453125
7198,-62.500000
7199,-64.453125
7200,-64.453125
7201,-62.500000
7202,-64.453125
7203,-60.546875
7204,-60.546875
7205,-64.453125
7206,-64.453125
7207,-62.500000
7208,-62.500000
7209,-64.453125
7210,-60.546875
7211,-64.453125
7212,-62.500000
7213,-60.546875
7214,-64.453125
7215,-60.546875
7216,-60.546875
7217,-60.546875
7218,-60.546875
7219,-60.546875
7220,-60.546875
7221,-60.546875
7222,-60.546875
7223,-60.546875
7224,-58.593750
7225,-56.640625
7226,-56.640625
7227,-54.687500
7228,-56.640625
7229,-54.687500
7230,-54.687500
7231,-54.687500
7232,-52.734375
7233,-54.687500
7234,-52.734375
7235,-48.828125
7236,-50.781250
7237,-48.828125
7238,-48.828125
7239,-50.781250
7240,-46.875000
7241,-48.828125
7242,-46.875000
7243,-48.828125
7244,-48.828125
7245,-44.921875
7246,-46.875000
7247,-44.921875
7248,-44.921875
7249,-44.921875
7250,-44.921875
7251,-46.875000
7252,-44.921875
7253,-46.875000
7254,-46.875000
7255,-48.828125
7256,-44.921875
7257,-50.781250
7258,-44.921875
7259,-48.828125
7260,-50.781250
7261,-48.828125
7262,-54.687500
7263,-48.828125
7264,-56.640625
7265,-56.640625
7266,-54.687500
7267,-56.640625
7268,-56.640625
7269,-60.546875
7270,-56.640625
7271,-56.640625
7272,-60.546875
7273,-60.546875
7274,-64.453125
7275,-60.546875
7276,-68.359375
7277,-62.500000
7278,-62.500000
7279,-62.500000
7280,-64.453125
7281,-64.453125
7282,-64.453125
7283,-64.453125
7284,-60.546875
7285,-70.312500
7286,-64.453125
7287,-62.500000
7288,-66.406250
7289,-62.500000
7290,-64.453125
7291,-64.453125
7292,-64.453125
7293,-66.406250
7294,-68.359375
7295,-64.453125
7296,-64.453125
7297,-64.453125
7298,-64.453125
7299,-64.453125
7300,-66.406250
7301,-64.453125
7302,-64.453125
7303,-62.500000
7304,-62.500000
7305,-64.453125
7306,-62.500000
7307,-62.500000
7308,-64.453125
7309,-60.546875
7310,-64.453125
7311,-62.500000
7312,-60.546875
7313,-68.359375
7314,-62.500000
7315,-64.453125
7316,-62.500000
7317,-60.546875
7318,-64.453125
7319,-62.500000
7320,-64.453125
7321,-60.546875
7322,-64.453125
7323,-62.500000
7324,-62.500000
7325,-64.453125
7326,-62.500000
7327,-64.453125
7328,-62.500000
7329,-64.453125
7330,-64.453125
7331,-62.500000
7332,-64.453125
7333,-64.453125
7334,-64.453125
7335,-60.546875
7336,-64.453125
7337,-64.453125
7338,-62.500000
7339,-62.500000
7340,-64.453125
7341,-64.453125
7342,-64.453125
7343,-60.546875
7344,-62.500000
7345,-64.453125
7346,-60.546875
7347,-64.453125
7348,-66.406250
7349,-64.453125
7350,-64.453125
7351,-60.546875
7352,-66.406250
7353,-62.500000
7354,-64.453125
7355,-64.453125
7356,-64.453125
7357,-64.453125
7358,-62.500000
7359,-64.453125
7360,-64.453125
7361,-64.453125
7362,-62.500000
7363,-64.453125
7364,-66.406250
7365,-62.500000
7366,-68.359375
7367,-66.406250
7368,-64.453125
7369,-64.453125
7370,-62.500000
7371,-64.453125
7372,-64.453125
7373,-64.453125
7374,-64.453125
7375,-60.546875
7376,-64.453125
7377,-64.453125
7378,-64.453125
7379,-64.453125
7380,-64.453125
7381,-64.453125
7382,-62.500000
7383,-62.500000
7384,-64.453125
7385,-64.453125
7386,-64.453125
7387,-64.453125
7388,-62.500000
7389,-64.453125
7390,-64.453125
7391,-62.500000
7392,-62.500000
7393,-64.453125
7394,-64.453125
7395,-62.500000
7396,-66.406250
7397,-62.500000
7398,-64.453125
7399,-60.546875
7400,-62.500000
7401,-64.453125
7402,-64.453125
7403,-62.500000
7404,-64.453125
7405,-62.500000
7406,-64.453125
7407,-62.500000
7408,-64.453125
7409,-60.546875
7410,-62.500000
7411,-64.453125
7412,-64.453125
7413,-64.453125
7414,-60.546875
7415,-64.453125
7416,-64.453125
7417,-64.453125
7418,-64.453125
7419,-64.453125
7420,-64.453125
7421,-62.500000
7422,-64.453125
7423,-64.453125
7424,-64.453125
7425,-64.453125
7426,-64.453125
7427,-64.453125
7428,-64.453125
7429,-60.546875
7430,-64.453125
7431,-64.453125
7432,-60.546875
7433,-64.453125
7434,-62.500000
7435,-64.453125
7436,-62.500000
7437,-64.453125
7438,-66.406250
7439,-62.500000
7440,-64.453125
7441,-64.453125
7442,-64.453125
7443,-64.453125
7444,-60.546875
7445,-64.453125
7446,-62.500000
7447,-64.453125
7448,-64.453125
7449,-64.453125
7450,-66.406250
7451,-66.406250
7452,-64.453125
7453,-64.453125
7454,-64.453125
7455,-64.453125
7456,-64.453125
7457,-64.453125
7458,-64.453125
7459,-64.453125
7460,-62.500000
7461,-62.500000
7462,-64.453125
7463,-64.453125
7464,-64.453125
7465,-62.500000
7466,-62.500000
7467,-64.453125
7468,-64.453125
7469,-64.453125
7470,-62.500000
7471,-62.500000
7472,-64.453125
7473,-64.453125
7474,-60.546875
7475,-64.453125
7476,-64.453125
7477,-64.453125
7478,-64.453125
7479,-64.453125
7480,-64.453125
7481,-62.500000
7482,-64.453125
7483,-62.500000
7484,-64.453125
7485,-60.546875
7486,-62.500000
7487,-66.406250
7488,-62.500000
7489,-64.453125
7490,-64.453125
7491,-62.500000
7492,-64.453125
7493,-62.500000
7494,-62.500000
7495,-64.453125
7496,-76.171875
7497,-64.453125
7498,-64.453125
7499,-62.500000
7500,-64.453125
7501,-64.453125
7502,-64.453125
7503,-64.453125
7504,-60.546875
7505,-60.546875
7506,-64.453125
7507,-64.453125
7508,-64.453125
7509,-64.453125
7510,-62.500000
7511,-66.406250
7512,-62.500000
7513,-64.453125
7514,-62.500000
7515,-64.453125
7516,-66.406250
7517,-62.500000
7518,-64.453125
7519,-64.453125
7520,-64.453125
7521,-64.453125
7522,-64.453125
7523,-64.453125
7524,-64.453125
7525,-64.453125
7526,-64.453125
7527,-64.453125
7528,-64.453125
7529,-62.500000
7530,-64.453125
7531,-64.453125
7532,-74.218750
7533,-64.453125
7534,-66.406250
7535,-64.453125
7536,-64.453125
7537,-64.453125
7538,-62.500000
7539,-66.406250
7540,-64.453125
7541,-68.359375
7542,-64.453125
7543,-64.453125
7544,-64.453125
7545,-64.453125
7546,-64.453125
7547,-62.500000
7548,-64.453125
7549,-64.453125
7550,-60.546875
7551,-64.453125
7552,-64.453125
7553,-66.406250
7554,-62.500000
7555,-64.453125
7556,-64.453125
7557,-64.453125
7558,-64.453125
7559,-64.453125
7560,-64.453125
7561,-64.453125
7562,-62.500000
7563,-64.453125
7564,-64.453125
7565,-64.453125
7566,-64.453125
7567,-64.453125
7568,-70.312500
7569,-64.453125
7570,-64.453125
7571,-64.453125
7572,-64.453125
7573,-64.453125
7574,-64.453125
7575,-64.453125
7576,-64.453125
7577,-64.453125
7578,-66.406250
7579,-62.500000
7580,-64.453125
7581,-64.453125
7582,-64.453125
7583,-66.406250
7584,-64.453125
7585,-66.406250
7586,-64.453125
7587,-60.546875
7588,-66.406250
7589,-64.453125
7590,-64.453125
7591,-64.453125
7592,-62.500000
7593,-64.453125
7594,-64.453125
7595,-62.500000
7596,-62.500000
7597,-64.453125
7598,-64.453125
7599,-64.453125
7600,-64.453125
7601,-64.453125
7602,-64.453125
7603,-64.453125
7604,-62.500000
7605,-64.453125
7606,-64.453125
7607,-64.453125
7608,-64.453125
7609,-64.453125
7610,-64.453125
7611,-62.500000
7612,-64.453125
7613,-64.453125
7614,-62.500000
7615,-64.453125
7616,-62.500000
7617,-64.453125
7618,-64.453125
7619,-64.453125
7620,-64.453125
7621,-64.453125
7622,-66.406250
7623,-66.406250
7624,-64.453125
7625,-64.453125
7626,-64.453125
7627,-66.406250
7628,-64.453125
7629,-64.453125
7630,-64.453125
7631,-60.546875
7632,-66.406250
7633,-64.453125
7634,-66.406250
7635,-64.453125
7636,-64.453125
7637,-66.406250
7638,-62.500000
7639,-64.453125
7640,-66.406250
7641,-64.453125
7642,-64.453125
7643,-64.453125
7644,-64.453125
7645,-64.453125
7646,-62.500000
7647,-60.546875
7648,-60.546875
7649,-60.546875
7650,-56.640625
7651,-54.687500
7652,-52.734375
7653,-50.781250
7654,-50.781250
7655,-48.828125
7656,-44.921875
7657,-48.828125
7658,-41.015625
7659,-41.015625
7660,-41.015625
7661,-39.062500
7662,-39.062500
7663,-64.453125
7664,-35.156250
7665,-35.156250
7666,-33.203125
7667,-35.156250
7668,-31.250000
7669,-31.250000
7670,-29.296875
7671,-27.343750
7672,-29.296875
7673,-29.296875
7674,-29.296875
7675,-29.296875
7676,-29.296875
7677,-29.296875
7678,-33.203125
7679,-31.250000
7680,-33.203125
7681,-33.203125
7682,-35.156250
7683,-35.156250
7684,-37.109375
7685,-37.109375
7686,-39.062500
7687,-41.015625
7688,-39.062500
7689,-41.015625
7690,-42.968750
7691,-44.921875
7692,-44.921875
7693,-44.921875
7694,-44.921875
7695,-46.875000
7696,-46.875000
7697,-44.921875
7698,-48.828125
7699,-48.828125
7700,-48.828125
7701,-48.828125
7702,-54.687500
7703,-56.640625
7704,-56.640625
7705,-54.687500
7706,-54.687500
7707,-56.640625
7708,-56.640625
7709,-54.687500
7710,-56.640625
7711,-56.640625
7712,-56.640625
7713,-56.640625
7714,-60.546875
7715,-58.593750
7716,-60.546875
7717,-60.546875
7718,-60.546875
7719,-60.546875
7720,-60.546875
7721,-60.546875
7722,-60.546875
7723,-62.500000
7724,-60.546875
7725,-60.546875
7726,-64.453125
7727,-60.546875
7728,-62.500000
7729,-64.453125
7730,-60.546875
7731,-62.500000
7732,-64.453125
7733,-62.500000
7734,-64.453125
7735,-64.453125
7736,-62.500000
7737,-64.453125
7738,-60.546875
7739,-64.453125
7740,-60.546875
7741,-62.500000
7742,-60.546875
7743,-60.546875
7744,-60.546875
7745,-56.640625
7746,-56.640625
7747,-56.640625
7748,-56.640625
7749,-56.640625
7750,-52.734375
7751,-50.781250
7752,-48.828125
7753,-44.921875
7754,-46.875000
7755,-42.968750
7756,-42.968750
7757,-44.921875
7758,-41.015625
7759,-37.109375
7760,-37.109375
7761,-35.156250
7762,-33.203125
7763,-33.203125
7764,-31.250000
7765,-33.203125
7766,-25.390625
7767,-31.250000
7768,-25.390625
7769,-23.437500
7770,-25.390625
7771,-23.437500
7772,-19.531250
7773,-19.531250
7774,-15.625000
7775,-17.578125
7776,-15.625000
7777,-13.671875
7778,-13.671875
7779,-9.765625
7780,-9.765625
7781,-13.671875
7782,-7.812500
7783,-9.765625
7784,-9.765625
7785,-7.812500
7786,-5.859375
7787,-5.859375
7788,-7.812500
7789,-7.812500
7790,-5.859375
7791,-3.906250
7792,-5.859375
7793,-3.906250
7794,-5.859375
7795,-3.906250
7796,-3.906250
7797,-3.906250
7798,-5.859375
7799,-5.859375
7800,-1.953125
7801,-3.906250
7802,-1.953125
7803,-3.906250
7804,-3.906250
7805,-3.906250
7806,-9.765625
7807,-3.906250
7808,-5.859375
7809,-3.906250
7810,-17.578125
7811,-9.765625
7812,-3.906250
7813,-5.859375
7814,-3.906250
7815,1.953125
7816,-5.859375
7817,-3.906250
7818,-3.906250
7819,-3.906250
7820,-3.906250
7821,-5.859375
7822,-7.812500
7823,-9.765625
7824,-17.578125
7825,-11.718750
7826,-13.671875
7827,-13.671875
7828,-17.578125
7829,-17.578125
7830,-19.531250
7831,-21.484375
7832,-21.484375
7833,-25.390625
7834,-27.343750
7835,-29.296875
7836,-29.296875
7837,-33.203125
7838,-33.203125
7839,-33.203125
7840,-35.156250
7841,-35.156250
7842,-37.109375
7843,-37.109375
7844,-39.062500
7845,-41.015625
7846,-41.015625
7847,-39.062500
7848,-41.015625
7849,-41.015625
7850,-41.015625
7851,-44.921875
7852,-44.921875
7853,-46.875000
7854,-46.875000
7855,-44.921875
7856,-48.828125
7857,-46.875000
7858,-48.828125
7859,-46.875000
7860,-44.921875
7861,-46.875000
7862,-46.875000
7863,-48.828125
7864,-46.875000
7865,-48.828125
7866,-50.781250
7867,-48.828125
7868,-48.828125
7869,-41.015625
7870,-48.828125
7871,-48.828125
7872,-48.828125
7873,-52.734375
7874,-48.828125
7875,-48.828125
7876,-50.781250
7877,-48.828125
7878,-48.828125
7879,-50.781250
7880,-48.828125
7881,-52.734375
7882,-54.687500
7883,-50.781250
7884,-50.781250
7885,-52.734375
7886,-54.687500
7887,-54.687500
7888,-54.687500
7889,-52.734375
7890,-52.734375
7891,-54.687500
7892,-50.781250
7893,-56.640625
7894,-54.687500
7895,-54.687500
7896,-56.640625
7897,-54.687500
7898,-56.640625
7899,-56.640625
7900,-52.734375
7901,-56.640625
7902,-54.687500
7903,-58.593750
7904,-56.640625
7905,-56.640625
7906,-58.593750
7907,-56.640625
7908,-56.640625
7909,-56.640625
7910,-58.593750
7911,-60.546875
7912,-54.687500
7913,-60.546875
7914,-56.640625
7915,-60.546875
7916,-58.593750
7917,-56.640625
7918,-58.593750
7919,-56.640625
7920,-60.546875
7921,-60.546875
7922,-56.640625
7923,-70.312500
7924,-54.687500
7925,-60.546875
7926,-60.546875
7927,-56.640625
7928,-60.546875
7929,-58.593750
7930,-60.546875
7931,-60.546875
7932,-50.781250
7933,-58.593750
7934,-56.640625
7935,-60.546875
7936,-60.546875
7937,-56.640625
7938,-60.546875
7939,-56.640625
7940,-60.546875
7941,-64.453125
7942,-56.640625
7943,-60.546875
7944,-56.640625
7945,-58.593750
7946,-56.640625
7947,-60.546875
7948,-56.640625
7949,-56.640625
7950,-58.593750
7951,-60.546875
7952,-56.640625
7953,-58.593750
7954,-60.546875
7955,-56.640625
7956,-60.546875
7957,-56.640625
7958,-60.546875
7959,-56.640625
7960,-56.640625
7961,-60.546875
7962,-60.546875
7963,-60.546875
7964,-56.640625
7965,-60.546875
7966,-56.640625
7967,-60.546875
7968,-56.640625
7969,-60.546875
7970,-58.593750
7971,-56.640625
7972,-60.546875
7973,-56.640625
7974,-56.640625
7975,-60.546875
7976,-56.640625
7977,-60.546875
7978,-60.546875
7979,-60.546875
7980,-60.546875
7981,-60.546875
7982,-56.640625
7983,-60.546875
7984,-60.546875
7985,-58.593750
7986,-54.687500
7987,-60.546875
7988,-44.921875
7989,-60.546875
7990,-56.640625
7991,-62.500000
7992,-58.593750
7993,-56.640625
7994,-60.546875
7995,-54.687500
7996,-58.593750
7997,-60.546875
7998,-56.640625
7999,-58.593750
8000,-52.734375
8001,-60.546875
8002,-60.546875
8003,-56.640625
8004,-58.593750
8005,-58.593750
8006,-60.546875
8007,-56.640625
8008,-62.500000
8009,-52.734375
8010,-60.546875
8011,-56.640625
8012,-56.640625
8013,-60.546875
8014,-60.546875
8015,-60.546875
8016,-58.593750
8017,-58.593750
8018,-60.546875
8019,-54.687500
8020,-60.546875
8021,-56.640625
8022,-60.546875
8023,-60.546875
8024,-56.640625
8025,-56.640625
8026,-56.640625
8027,-56.640625
8028,-58.593750
8029,-52.734375
8030,-54.687500
8031,-56.640625
8032,-54.687500
8033,-54.687500
8034,-54.687500
8035,-52.734375
8036,-54.687500
8037,-50.781250
8038,-50.781250
8039,-48.828125
8040,-48.828125
8041,-50.781250
8042,-48.828125
8043,-46.875000
8044,-44.921875
8045,-41.015625
8046,-41.015625
8047,-37.109375
8048,-39.062500
8049,-41.015625
8050,-35.156250
8051,-33.203125
8052,-29.296875
8053,-25.390625
8054,-27.343750
8055,-23.437500
8056,-25.390625
8057,-21.484375
8058,-19.531250
8059,-17.578125
8060,-17.578125
8061,-17.578125
8062,-13.671875
8063,-15.625000
8064,-11.718750
8065,-9.765625
8066,-9.765625
8067,-7.812500
8068,-7.812500
8069,-7.812500
8070,-5.859375
8071,-7.812500
8072,-3.906250
8073,-3.906250
8074,-3.906250
8075,-3.906250
8076,-9.765625
8077,-3.906250
8078,-3.906250
8079,-5.859375
8080,-3.906250
8081,-5.859375
8082,-1.953125
8083,-3.906250
8084,-5.859375
8085,-5.859375
8086,-3.906250
8087,-3.906250
8088,-3.906250
8089,-1.953125
8090,-1.953125
8091,-3.906250
8092,-1.953125
8093,-1.953125
8094,-1.953125
8095,-3.906250
8096,-1.953125
8097,-1.953125
8098,-1.953125
8099,-3.906250
8100,-3.906250
8101,-9.765625
8102,-9.765625
8103,-13.671875
8104,-17.578125
8105,-15.625000
8106,-19.531250
8107,-21.484375
8108,-25.390625
8109,-31.250000
8110,-31.250000
8111,-33.203125
8112,-39.062500
8113,-39.062500
8114,-41.015625
8115,-44.921875
8116,-46.875000
8117,-44.921875
8118,-52.734375
8119,-50.781250
8120,-56.640625
8121,-56.640625
8122,-56.640625
8123,-60.546875
8124,-56.640625
8125,-58.593750
8126,-60.546875
8127,-62.500000
8128,-62.500000
8129,-62.500000
8130,-64.453125
8131,-66.406250
8132,-64.453125
8133,-64.453125
8134,-64.453125
8135,-64.453125
8136,-66.406250
8137,-64.453125
8138,-64.453125
8139,-64.453125
8140,-62.500000
8141,-66.406250
8142,-64.453125
8143,-64.453125
8144,-64.453125
8145,-64.453125
8146,-64.453125
8147,-62.500000
8148,-64.453125
8149,-62.500000
8150,-64.453125
8151,-64.453125
8152,-62.500000
8153,-64.453125
8154,-64.453125
8155,-64.453125
8156,-64.453125
8157,-62.500000
8158,-64.453125
8159,-62.500000
8160,-62.500000
8161,-66.406250
8162,-64.453125
8163,-64.453125
8164,-64.453125
8165,-64.453125
8166,-64.453125
8167,-64.453125
8168,-66.406250
8169,-64.453125
8170,-64.453125
8171,-62.500000
8172,-64.453125
8173,-64.453125
8174,-64.453125
8175,-64.453125
8176,-64.453125
8177,-64.453125
8178,-64.453125
8179,-64.453125
8180,-66.406250
8181,-62.500000
8182,-62.500000
8183,-64.453125
8184,-64.453125
8185,-64.453125
8186,-64.453125
8187,-62.500000
8188,-62.500000
8189,-60.546875
8190,-64.453125
8191,-64.453125
8192,-62.500000
8193,-64.453125
8194,-60.546875
8195,-68.359375
8196,-60.546875
8197,-60.546875
8198,-60.546875
8199,-60.546875
8200,-58.593750
8201,-56.640625
8202,-56.640625
8203,-58.593750
8204,-54.687500
8205,-56.640625
8206,-42.968750
8207,-56.640625
8208,-56.640625
8209,-56.640625
8210,-52.734375
8211,-56.640625
8212,-54.687500
8213,-56.640625
8214,-52.734375
8215,-44.921875
8216,-54.687500
8217,-54.687500
8218,-54.687500
8219,-52.734375
8220,-48.828125
8221,-48.828125
8222,-48.828125
8223,-50.781250
8224,-56.640625
8225,-50.781250
8226,-48.828125
8227,-48.828125
8228,-50.781250
8229,-48.828125
8230,-50.781250
8231,-48.828125
8232,-50.781250
8233,-46.875000
8234,-48.828125
8235,-54.687500
8236,-52.734375
8237,-52.734375
8238,-56.640625
8239,-54.687500
8240,-54.687500
8241,-56.640625
8242,-56.640625
8243,-60.546875
8244,-52.734375
8245,-56.640625
8246,-56.640625
8247,-56.640625
8248,-62.500000
8249,-60.546875
8250,-64.453125
8251,-76.171875
8252,-62.500000
8253,-64.453125
8254,-64.453125
8255,-64.453125
8256,-66.406250
8257,-64.453125
8258,-64.453125
8259,-64.453125
8260,-66.406250
8261,-66.406250
8262,-64.453125
8263,-64.453125
8264,-66.406250
8265,-62.500000
8266,-66.406250
8267,-68.359375
8268,-64.453125
8269,-64.453125
8270,-64.453125
8271,-66.406250
8272,-64.453125
8273,-66.406250
8274,-66.406250
8275,-66.406250
8276,-66.406250
8277,-64.453125
8278,-64.453125
8279,-66.406250
8280,-66.406250
8281,-64.453125
8282,-66.406250
8283,-64.453125
8284,-64.453125
8285,-66.406250
8286,-64.453125
8287,-66.406250
8288,-64.453125
8289,-64.453125
8290,-64.453125
8291,-64.453125
8292,-64.453125
8293,-62.500000
8294,-64.453125
8295,-64.453125
8296,-60.546875
8297,-64.453125
8298,-64.453125
8299,-64.453125
8300,-64.453125
8301,-64.453125
8302,-64.453125
8303,-62.500000
8304,-64.453125
8305,-64.453125
8306,-60.546875
8307,-64.453125
8308,-64.453125
8309,-64.453125
8310,-66.406250
8311,-64.453125
8312,-64.453125
8313,-64.453125
8314,-64.453125
8315,-64.453125
8316,-64.453125
8317,-66.406250
8318,-64.453125
8319,-64.453125
8320,-66.406250
8321,-64.453125
8322,-64.453125
8323,-62.500000
8324,-66.406250
8325,-64.453125
8326,-64.453125
8327,-64.453125
8328,-64.453125
8329,-66.406250
8330,-64.453125
8331,-64.453125
8332,-66.406250
8333,-64.453125
8334,-64.453125
8335,-64.453125
8336,-64.453125
8337,-64.453125
8338,-66.406250
8339,-64.453125
8340,-64.453125
8341,-66.406250
8342,-66.406250
8343,-64.453125
8344,-66.406250
8345,-64.453125
8346,-64.453125
8347,-66.406250
8348,-64.453125
8349,-64.453125
8350,-64.453125
8351,-64.453125
8352,-66.406250
8353,-64.453125
8354,-64.453125
8355,-64.453125
8356,-64.453125
8357,-64.453125
8358,-64.453125
8359,-68.359375
8360,-64.453125
8361,-64.453125
8362,-64.453125
8363,-64.453125
8364,-64.453125
8365,-80.078125
8366,-64.453125
8367,-66.406250
8368,-64.453125
8369,-64.453125
8370,-64.453125
8371,-64.453125
8372,-62.500000
8373,-64.453125
8374,-64.453125
8375,-64.453125
8376,-64.453125
8377,-64.453125
8378,-64.453125
8379,-64.453125
8380,-62.500000
8381,-64.453125
8382,-64.453125
8383,-62.500000
8384,-64.453125
8385,-64.453125
8386,-66.406250
8387,-64.453125
8388,-64.453125
8389,-64.453125
8390,-62.500000
8391,-64.453125
8392,-64.453125
8393,-62.500000
8394,-64.453125
8395,-62.500000
8396,-62.500000
8397,-64.453125
8398,-62.500000
8399,-64.453125
8400,-62.500000
8401,-62.500000
8402,-64.453125
8403,-56.640625
8404,-64.453125
8405,-60.546875
8406,-80.078125
8407,-62.500000
8408,-62.500000
8409,-62.500000
8410,-60.546875
8411,-64.453125
8412,-62.500000
8413,-62.500000
8414,-64.453125
8415,-62.500000
8416,-62.500000
8417,-62.500000
8418,-60.546875
8419,-62.500000
8420,-62.500000
8421,-62.500000
8422,-66.406250
8423,-62.500000
8424,-64.453125
8425,-62.500000
8426,-64.453125
8427,-62.500000
8428,-60.546875
8429,-64.453125
8430,-64.453125
8431,-62.500000
8432,-60.546875
8433,-62.500000
8434,-62.500000
8435,-60.546875
8436,-64.453125
8437,-64.453125
8438,-64.453125
8439,-64.453125
8440,-62.500000
8441,-62.500000
8442,-62.500000
8443,-62.500000
8444,-62.500000
8445,-60.546875
8446,-64.453125
8447,-64.453125
8448,-60.546875
8449,-62.500000
8450,-60.546875
8451,-62.500000
8452,-64.453125
8453,-62.500000
8454,-62.500000
8455,-62.500000
8456,-64.453125
8457,-64.453125
8458,-64.453125
8459,-64.453125
8460,-62.500000
8461,-62.500000
8462,-64.453125
8463,-64.453125
8464,-64.453125
8465,-66.406250
8466,-64.453125
8467,-62.500000
8468,-64.453125
8469,-60.546875
8470,-64.453125
8471,-64.453125
8472,-62.500000
8473,-64.453125
8474,-60.546875
8475,-64.453125
8476,-62.500000
8477,-64.453125
8478,-64.453125
8479,-64.453125
8480,-64.453125
8481,-64.453125
8482,-62.500000
8483,-60.546875
8484,-64.453125
8485,-64.453125
8486,-64.453125
8487,-62.500000
8488,-64.453125
8489,-64.453125
8490,-60.546875
8491,-64.453125
8492,-62.500000
8493,-64.453125
8494,-62.500000
8495,-64.453125
8496,-64.453125
8497,-64.453125
8498,-60.546875
8499,-64.453125
8500,-62.500000
8501,-64.453125
8502,-62.500000
8503,-62.500000
8504,-60.546875
8505,-64.453125
8506,-62.500000
8507,-46.875000
8508,-62.500000
8509,-62.500000
8510,-64.453125
8511,-62.500000
8512,-64.453125
8513,-64.453125
8514,-64.453125
8515,-64.453125
8516,-64.453125
8517,-64.453125
8518,-64.453125
8519,-64.453125
8520,-62.500000
8521,-64.453125
8522,-64.453125
8523,-62.500000
8524,-64.453125
8525,-64.453125
8526,-64.453125
8527,-64.453125
8528,-64.453125
8529,-64.453125
8530,-68.359375
8531,-62.500000
8532,-66.406250
8533,-64.453125
8534,-64.453125
8535,-64.453125
8536,-66.406250
8537,-64.453125
8538,-64.453125
8539,-64.453125
8540,-66.406250
8541,-64.453125
8542,-64.453125
8543,-64.453125
8544,-64.453125
8545,-64.453125
8546,-62.500000
8547,-64.453125
8548,-62.500000
8549,-62.500000
8550,-64.453125
8551,-64.453125
8552,-64.453125
8553,-64.453125
8554,-60.546875
8555,-64.453125
8556,-64.453125
8557,-64.453125
8558,-64.453125
8559,-64.453125
8560,-64.453125
8561,-64.453125
8562,-64.453125
8563,-64.453125
8564,-64.453125
8565,-66.406250
8566,-64.453125
8567,-64.453125
8568,-64.453125
8569,-64.453125
8570,-64.453125
8571,-64.453125
8572,-68.359375
8573,-64.453125
8574,-64.453125
8575,-62.500000
8576,-64.453125
8577,-66.406250
8578,-64.453125
8579,-64.453125
8580,-64.453125
8581,-68.359375
8582,-64.453125
8583,-64.453125
8584,-64.453125
8585,-66.406250
8586,-64.453125
8587,-64.453125
8588,-66.406250
8589,-66.406250
8590,-66.406250
8591,-64.453125
8592,-66.406250
8593,-64.453125
8594,-64.453125
8595,-64.453125
8596,-64.453125
8597,-64.453125
8598,-64.453125
8599,-64.453125
8600,-64.453125
8601,-64.453125
8602,-62.500000
8603,-66.406250
8604,-66.406250
8605,-66.406250
8606,-66.406250
8607,-66.406250
8608,-64.453125
8609,-64.453125
8610,-68.359375
8611,-62.500000
8612,-64.453125
8613,-64.453125
8614,-64.453125
8615,-66.406250
8616,-64.453125
8617,-66.406250
8618,-64.453125
8619,-64.453125
8620,-68.359375
8621,-64.453125
8622,-66.406250
8623,-66.406250
8624,-64.453125
8625,-66.406250
8626,-64.453125
8627,-64.453125
8628,-66.406250
8629,-68.359375
8630,-64.453125
8631,-64.453125
8632,-66.406250
8633,-72.265625
8634,-66.406250
8635,-68.359375
8636,-66.406250
8637,-66.406250
8638,-64.453125
8639,-64.453125
8640,-66.406250
8641,-64.453125
8642,-64.453125
8643,-64.453125
8644,-64.453125
8645,-66.406250
8646,-64.453125
8647,-66.406250
8648,-66.406250
8649,-66.406250
8650,-64.453125
8651,-52.734375
8652,-66.406250
8653,-64.453125
8654,-66.406250
8655,-64.453125
8656,-64.453125
8657,-64.453125
8658,-66.406250
8659,-64.453125
8660,-66.406250
8661,-64.453125
8662,-64.453125
8663,-64.453125
8664,-64.453125
8665,-64.453125
8666,-62.500000
8667,-64.453125
8668,-62.500000
8669,-66.406250
8670,-64.453125
8671,-62.500000
8672,-64.453125
8673,-60.546875
8674,-64.453125
8675,-62.500000
8676,-56.640625
8677,-60.546875
8678,-58.593750
8679,-56.640625
8680,-54.687500
8681,-48.828125
8682,-52.734375
8683,-50.781250
8684,-46.875000
8685,-48.828125
8686,-48.828125
8687,-42.968750
8688,-41.015625
8689,-41.015625
8690,-41.015625
8691,-39.062500
8692,-39.062500
8693,-33.203125
8694,-31.250000
8695,-33.203125
8696,-29.296875
8697,-27.343750
8698,-25.390625
8699,-25.390625
8700,-25.390625
8701,-25.390625
8702,-23.437500
8703,-21.484375
8704,-21.484375
8705,-23.437500
8706,-35.156250
8707,-25.390625
8708,-21.484375
8709,-23.437500
8710,-29.296875
8711,-25.390625
8712,-29.296875
8713,-31.250000
8714,-31.250000
8715,-33.203125
8716,-33.203125
8717,-37.109375
8718,-37.109375
8719,-39.062500
8720,-41.015625
8721,-39.062500
8722,-41.015625
8723,-39.062500
8724,-41.015625
8725,-44.921875
8726,-44.921875
8727,-44.921875
8728,-41.015625
8729,-46.875000
8730,-46.875000
8731,-48.828125
8732,-48.828125
8733,-44.921875
8734,-48.828125
8735,-48.828125
8736,-48.828125
8737,-48.828125
8738,-52.734375
8739,-50.781250
8740,-54.687500
8741,-54.687500
8742,-54.687500
8743,-52.734375
8744,-54.687500
8745,-56.640625
8746,-52.734375
8747,-56.640625
8748,-58.593750
8749,-56.640625
8750,-54.687500
8751,-39.062500
8752,-60.546875
8753,-56.640625
8754,-56.640625
8755,-56.640625
8756,-58.593750
8757,-64.453125
8758,-56.640625
8759,-60.546875
8760,-56.640625
8761,-62.500000
8762,-60.546875
8763,-62.500000
8764,-60.546875
8765,-60.546875
8766,-64.453125
8767,-60.546875
8768,-64.453125
8769,-60.546875
8770,-60.546875
8771,-64.453125
8772,-60.546875
8773,-62.500000
8774,-64.453125
8775,-64.453125
8776,-62.500000
8777,-60.546875
8778,-60.546875
8779,-60.546875
8780,-62.500000
8781,-60.546875
8782,-64.453125
8783,-60.546875
8784,-66.406250
8785,-60.546875
8786,-60.546875
8787,-62.500000
8788,-60.546875
8789,-60.546875
8790,-60.546875
8791,-60.546875
8792,-60.546875
8793,-58.593750
8794,-60.546875
8795,-58.593750
8796,-56.640625
8797,-60.546875
8798,-56.640625
8799,-58.593750
8800,-56.640625
8801,-56.640625
8802,-52.734375
8803,-54.687500
8804,-60.546875
8805,-56.640625
8806,-50.781250
8807,-54.687500
8808,-54.687500
8809,-50.781250
8810,-52.734375
8811,-46.875000
8812,-48.828125
8813,-41.015625
8814,-44.921875
8815,-42.968750
8816,-41.015625
8817,-41.015625
8818,-39.062500
8819,-37.109375
8820,-35.156250
8821,-33.203125
8822,-31.250000
8823,-29.296875
8824,-29.296875
8825,-27.343750
8826,-23.437500
8827,-23.437500
8828,-21.484375
8829,-19.531250
8830,-17.578125
8831,-13.671875
8832,-17.578125
8833,-13.671875
8834,-13.671875
8835,-13.671875
8836,-9.765625
8837,-9.765625
8838,-9.765625
8839,-7.812500
8840,-9.765625
8841,-7.812500
8842,-7.812500
8843,-5.859375
8844,-1.953125
8845,-7.812500
8846,-3.906250
8847,-5.859375
8848,-7.812500
8849,-3.906250
8850,-7.812500
8851,-3.906250
8852,-3.906250
8853,-5.859375
8854,-3.906250
8855,-5.859375
8856,-1.953125
8857,-5.859375
8858,-3.906250
8859,-3.906250
8860,-3.906250
8861,-3.906250
8862,-5.859375
8863,-1.953125
8864,-5.859375
8865,-3.906250
8866,-3.906250
8867,-5.859375
8868,-5.859375
8869,-3.906250
8870,-5.859375
8871,-3.906250
8872,-5.859375
8873,-3.906250
8874,-3.906250
8875,-5.859375
8876,-3.906250
8877,-5.859375
8878,-5.859375
8879,-7.812500
8880,-5.859375
8881,-3.906250
8882,-7.812500
8883,-5.859375
8884,-5.859375
8885,-5.859375
8886,-5.859375
8887,-3.906250
8888,-3.906250
8889,-7.812500
8890,-1.953125
8891,-3.906250
8892,-5.859375
8893,-5.859375
8894,-3.906250
8895,-7.812500
8896,-3.906250
8897,-3.906250
8898,-3.906250
8899,-3.906250
8900,-5.859375
8901,-3.906250
8902,-5.859375
8903,-5.859375
8904,-3.906250
8905,-3.906250
8906,-1.953125
8907,7.812500
8908,-5.859375
8909,-5.859375
8910,-5.859375
8911,-5.859375
8912,-5.859375
8913,-3.906250
8914,-5.859375
8915,-5.859375
8916,-5.859375
8917,-5.859375
8918,-5.859375
8919,-5.859375
8920,-5.859375
8921,-7.812500
8922,-3.906250
8923,-3.906250
8924,-3.906250
8925,-5.859375
8926,-3.906250
8927,-5.859375
8928,-3.906250
8929,-5.859375
8930,-5.859375
8931,-3.906250
8932,-7.812500
8933,-3.906250
8934,-1.953125
8935,-5.859375
8936,-5.859375
8937,-5.859375
8938,-3.906250
8939,-5.859375
8940,-5.859375
8941,-1.953125
8942,-3.906250
8943,-1.953125
8944,-1.953125
8945,-5.859375
8946,-3.906250
8947,-5.859375
8948,-5.859375
8949,-3.906250
8950,-7.812500
8951,-5.859375
8952,-5.859375
8953,-3.906250
8954,-5.859375
8955,-3.906250
8956,-7.812500
8957,-7.812500
8958,-3.906250
8959,-5.859375
8960,-5.859375
8961,-7.812500
8962,-5.859375
8963,-5.859375
8964,-5.859375
8965,-5.859375
8966,-5.859375
8967,-5.859375
8968,-7.812500
8969,-17.578125
8970,-1.953125
8971,-7.812500
8972,-5.859375
8973,-5.859375
8974,-3.906250
8975,-3.906250
8976,-3.906250
8977,-5.859375
8978,-3.906250
8979,-5.859375
8980,-5.859375
8981,-3.906250
8982,-5.859375
8983,-5.859375
8984,-5.859375
8985,-5.859375
8986,-3.906250
8987,-5.859375
8988,-5.859375
8989,-3.906250
8990,-3.906250
8991,-5.859375
8992,-3.906250
8993,-3.906250
8994,-3.906250
8995,-3.906250
8996,-3.906250
8997,-3.906250
8998,-7.812500
8999,-3.906250
9000,-5.859375
9001,-3.906250
9002,-1.953125
9003,-3.906250
9004,-1.953125
9005,-5.859375
9006,-7.812500
9007,-9.765625
9008,-9.765625
9009,-9.765625
9010,-13.671875
9011,-13.671875
9012,-17.578125
9013,-17.578125
9014,-19.531250
9015,-23.437500
9016,-25.390625
9017,-27.343750
9018,-25.390625
9019,-31.250000
9020,-29.296875
9021,-33.203125
9022,-35.156250
9023,-35.156250
9024,-37.109375
9025,-23.437500
9026,-41.015625
9027,-41.015625
9028,-41.015625
9029,-42.968750
9030,-44.921875
9031,-44.921875
9032,-44.921875
9033,-44.921875
9034,-44.921875
9035,-46.875000
9036,-46.875000
9037,-48.828125
9038,-48.828125
9039,-48.828125
9040,-48.828125
9041,-48.828125
9042,-46.875000
9043,-50.781250
9044,-48.828125
9045,-50.781250
9046,-48.828125
9047,-48.828125
9048,-54.687500
9049,-54.687500
9050,-52.734375
9051,-52.734375
9052,-52.734375
9053,-52.734375
9054,-50.781250
9055,-54.687500
9056,-50.781250
9057,-54.687500
9058,-54.687500
9059,-52.734375
9060,-56.640625
9061,-50.781250
9062,-56.640625
9063,-56.640625
9064,-54.687500
9065,-52.734375
9066,-52.734375
9067,-56.640625
9068,-56.640625
9069,-54.687500
9070,-64.453125
9071,-56.640625
9072,-52.734375
9073,-58.593750
9074,-56.640625
9075,-56.640625
9076,-56.640625
9077,-56.640625
9078,-58.593750
9079,-54.687500
9080,-58.593750
9081,-54.687500
9082,-56.640625
9083,-56.640625
9084,-56.640625
9085,-60.546875
9086,-54.687500
9087,-56.640625
9088,-56.640625
9089,-56.640625
9090,-56.640625
9091,-52.734375
9092,-56.640625
9093,-56.640625
9094,-56.640625
9095,-56.640625
9096,-56.640625
9097,-56.640625
9098,-56.640625
9099,-54.687500
9100,-52.734375
9101,-54.687500
9102,-52.734375
9103,-56.640625
9104,-56.640625
9105,-56.640625
9106,-54.687500
9107,-56.640625
9108,-56.640625
9109,-54.687500
9110,-54.687500
9111,-50.781250
9112,-56.640625
9113,-56.640625
9114,-54.687500
9115,-54.687500
9116,-54.687500
9117,-50.781250
9118,-50.781250
9119,-48.828125
9120,-46.875000
9121,-44.921875
9122,-44.921875
9123,-41.015625
9124,-39.062500
9125,-39.062500
9126,-33.203125
9127,-33.203125
9128,-33.203125
9129,-29.296875
9130,-29.296875
9131,-25.390625
9132,-19.531250
9133,-23.437500
9134,-17.578125
9135,-19.531250
9136,-17.578125
9137,-15.625000
9138,-13.671875
9139,-9.765625
9140,-13.671875
9141,-9.765625
9142,-7.812500
9143,-7.812500
9144,-9.765625
9145,-7.812500
9146,-7.812500
9147,-7.812500
9148,-5.859375
9149,-3.906250
9150,-5.859375
9151,-5.859375
9152,-3.906250
9153,-3.906250
9154,-7.812500
9155,-7.812500
9156,-3.906250
9157,-3.906250
9158,-5.859375
9159,-3.906250
9160,-7.812500
9161,-3.906250
9162,-5.859375
9163,-3.906250
9164,-5.859375
9165,-5.859375
9166,-9.765625
9167,-13.671875
9168,-13.671875
9169,-17.578125
9170,-21.484375
9171,-19.531250
9172,-23.437500
9173,-25.390625
9174,-29.296875
9175,-29.296875
9176,-33.203125
9177,-35.156250
9178,-35.156250
9179,-25.390625
9180,-41.015625
9181,-42.968750
9182,-46.875000
9183,-46.875000
9184,-48.828125
9185,-50.781250
9186,-56.640625
9187,-54.687500
9188,-56.640625
9189,-56.640625
9190,-56.640625
9191,-58.593750
9192,-60.546875
9193,-60.546875
9194,-62.500000
9195,-62.500000
9196,-60.546875
9197,-64.453125
9198,-64.453125
9199,-62.500000
9200,-66.406250
9201,-64.453125
9202,-64.453125
9203,-64.453125
9204,-62.500000
9205,-64.453125
9206,-64.453125
9207,-64.453125
9208,-64.453125
9209,-64.453125
9210,-66.406250
9211,-64.453125
9212,-64.453125
9213,-64.453125
9214,-62.500000
9215,-64.453125
9216,-62.500000
9217,-66.406250
9218,-64.453125
9219,-64.453125
9220,-64.453125
9221,-64.453125
9222,-64.453125
9223,-64.453125
9224,-64.453125
9225,-64.453125
9226,-64.453125
9227,-64.453125
9228,-64.453125
9229,-64.453125
9230,-64.453125
9231,-64.453125
9232,-66.406250
9233,-64.453125
9234,-64.453125
9235,-64.453125
9236,-64.453125
9237,-64.453125
9238,-64.453125
9239,-64.453125
9240,-64.453125
9241,-64.453125
9242,-64.453125
9243,-64.453125
9244,-64.453125
9245,-64.453125
9246,-60.546875
9247,-64.453125
9248,-60.546875
9249,-64.453125
9250,-64.453125
9251,-62.500000
9252,-64.453125
9253,-62.500000
9254,-66.406250
9255,-60.546875
9256,-64.453125
9257,-62.500000
9258,-62.500000
9259,-64.453125
9260,-60.546875
9261,-62.500000
9262,-60.546875
9263,-60.546875
9264,-62.500000
9265,-60.546875
9266,-64.453125
9267,-60.546875
9268,-60.546875
9269,-60.546875
9270,-60.546875
9271,-62.500000
9272,-60.546875
9273,-56.640625
9274,-60.546875
9275,-60.546875
9276,-60.546875
9277,-56.640625
9278,-56.640625
9279,-60.546875
9280,-56.640625
9281,-56.640625
9282,-56.640625
9283,-54.687500
9284,-58.593750
9285,-56.640625
9286,-66.406250
9287,-56.640625
9288,-56.640625
9289,-56.640625
9290,-54.687500
9291,-54.687500
9292,-56.640625
9293,-54.687500
9294,-52.734375
9295,-56.640625
9296,-52.734375
9297,-54.687500
9298,-50.781250
9299,-46.875000
9300,-50.781250
9301,-48.828125
9302,-46.875000
9303,-48.828125
9304,-48.828125
9305,-46.875000
9306,-44.921875
9307,-46.875000
9308,-44.921875
9309,-46.875000
9310,-44.921875
9311,-46.875000
9312,-46.875000
9313,-44.921875
9314,-46.875000
9315,-44.921875
9316,-44.921875
9317,-46.875000
9318,-41.015625
9319,-42.968750
9320,-44.921875
9321,-44.921875
9322,-44.921875
9323,-42.968750
9324,-44.921875
9325,-44.921875
9326,-44.921875
9327,-46.875000
9328,-46.875000
9329,-46.875000
9330,-48.828125
9331,-46.875000
9332,-50.781250
9333,-48.828125
9334,-50.781250
9335,-52.734375
9336,-52.734375
9337,-56.640625
9338,-54.687500
9339,-56.640625
9340,-54.687500
9341,-56.640625
9342,-56.640625
9343,-58.593750
9344,-60.546875
9345,-60.546875
9346,-60.546875
9347,-68.359375
9348,-60.546875
9349,-62.500000
9350,-64.453125
9351,-62.500000
9352,-64.453125
9353,-62.500000
9354,-64.453125
9355,-64.453125
9356,-62.500000
9357,-66.406250
9358,-62.500000
9359,-64.453125
9360,-66.406250
9361,-64.453125
9362,-66.406250
9363,-64.453125
9364,-64.453125
9365,-64.453125
9366,-66.406250
9367,-66.406250
9368,-66.406250
9369,-68.359375
9370,-70.312500
9371,-64.453125
9372,-68.359375
9373,-66.406250
9374,-70.312500
9375,-66.406250
9376,-64.453125
9377,-68.359375
9378,-66.406250
9379,-66.406250
9380,-66.406250
9381,-66.406250
9382,-66.406250
9383,-66.406250
9384,-70.312500
9385,-66.406250
9386,-66.406250
9387,-66.406250
9388,-66.406250
9389,-66.406250
9390,-66.406250
9391,-66.406250
9392,-68.359375
9393,-66.406250
9394,-66.406250
9395,-66.406250
9396,-66.406250
9397,-68.359375
9398,-66.406250
9399,-66.406250
9400,-66.406250
9401,-60.546875
9402,-66.406250
9403,-64.453125
9404,-66.406250
9405,-66.406250
9406,-64.453125
9407,-66.406250
9408,-66.406250
9409,-68.359375
9410,-66.406250
9411,-66.406250
9412,-66.406250
9413,-64.453125
9414,-66.406250
9415,-64.453125
9416,-66.406250
9417,-66.406250
9418,-66.406250
9419,-66.406250
9420,-68.359375
9421,-66.406250
9422,-66.406250
9423,-64.453125
9424,-66.406250
9425,-68.359375
9426,-66.406250
9427,-68.359375
9428,-66.406250
9429,-66.406250
9430,-64.453125
9431,-64.453125
9432,-70.312500
9433,-64.453125
9434,-68.359375
9435,-66.406250
9436,-66.406250
9437,-68.359375
9438,-66.406250
9439,-64.453125
9440,-66.406250
9441,-66.406250
9442,-72.265625
9443,-64.453125
9444,-66.406250
9445,-66.406250
9446,-66.406250
9447,-66.406250
9448,-64.453125
9449,-64.453125
9450,-66.406250
9451,-64.453125
9452,-68.359375
9453,-64.453125
9454,-66.406250
9455,-68.359375
9456,-64.453125
9457,-66.406250
9458,-64.453125
9459,-66.406250
9460,-66.406250
9461,-66.406250
9462,-66.406250
9463,-66.406250
9464,-70.312500
9465,-64.453125
9466,-66.406250
9467,-64.453125
9468,-68.359375
9469,-66.406250
9470,-64.453125
9471,-66.406250
9472,-64.453125
9473,-64.453125
9474,-68.359375
9475,-66.406250
9476,-66.406250
9477,-64.453125
9478,-64.453125
9479,-66.406250
9480,-66.406250
9481,-66.406250
9482,-64.453125
9483,-66.406250
9484,-66.406250
9485,-66.406250
9486,-66.406250
9487,-70.312500
9488,-64.453125
9489,-66.406250
9490,-66.406250
9491,-66.406250
9492,-66.406250
9493,-64.453125
9494,-68.359375
9495,-66.406250
9496,-68.359375
9497,-64.453125
9498,-66.406250
9499,-66.406250
9500,-64.453125
9501,-70.312500
9502,-64.453125
9503,-66.406250
9504,-66.406250
9505,-64.453125
9506,-68.359375
9507,-64.453125
9508,-68.359375
9509,-64.453125
9510,-68.359375
9511,-66.406250
9512,-66.406250
9513,-66.406250
9514,-66.406250
9515,-66.406250
9516,-66.406250
9517,-68.359375
9518,-70.312500
9519,-66.406250
9520,-68.359375
9521,-66.406250
9522,-68.359375
9523,-66.406250
9524,-66.406250
9525,-66.406250
9526,-66.406250
9527,-72.265625
9528,-66.406250
9529,-66.406250
9530,-68.359375
9531,-68.359375
9532,-64.453125
9533,-68.359375
9534,-66.406250
9535,-66.406250
9536,-68.359375
9537,-64.453125
9538,-68.359375
9539,-66.406250
9540,-68.359375
9541,-68.359375
9542,-66.406250
9543,-66.406250
9544,-66.406250
9545,-68.359375
9546,-66.406250
9547,-66.406250
9548,-68.359375
9549,-66.406250
9550,-66.406250
9551,-66.406250
9552,-64.453125
9553,-66.406250
9554,-64.453125
9555,-70.312500
9556,-68.359375
9557,-66.406250
9558,-66.406250
9559,-66.406250
9560,-64.453125
9561,-64.453125
9562,-68.359375
9563,-66.406250
9564,-64.453125
9565,-66.406250
9566,-64.453125
9567,-66.406250
9568,-66.406250
9569,-64.453125
9570,-68.359375
9571,-64.453125
9572,-66.406250
9573,-70.312500
9574,-66.406250
9575,-66.406250
9576,-64.453125
9577,-66.406250
9578,-66.406250
9579,-66.406250
9580,-66.406250
9581,-64.453125
9582,-72.265625
9583,-66.406250
9584,-66.406250
9585,-66.406250
9586,-66.406250
9587,-68.359375
9588,-66.406250
9589,-64.453125
9590,-66.406250
9591,-66.406250
9592,-64.453125
9593,-66.406250
9594,-60.546875
9595,-66.406250
9596,-66.406250
9597,-64.453125
9598,-66.406250
9599,-64.453125
9600,-68.359375
9601,-66.406250
9602,-66.406250
9603,-68.359375
9604,-64.453125
9605,-68.359375
9606,-66.406250
9607,-70.312500
9608,-68.359375
9609,-66.406250
9610,-68.359375
9611,-66.406250
9612,-74.218750
9613,-70.312500
9614,-66.406250
9615,-68.359375
9616,-66.406250
9617,-64.453125
9618,-66.406250
9619,-68.359375
9620,-66.406250
9621,-68.359375
9622,-70.312500
9623,-66.406250
9624,-66.406250
9625,-68.359375
9626,-64.453125
9627,-68.359375
9628,-64.453125
9629,-66.406250
9630,-70.312500
9631,-64.453125
9632,-66.406250
9633,-64.453125
9634,-64.453125
9635,-64.453125
9636,-64.453125
9637,-64.453125
9638,-62.500000
9639,-64.453125
9640,-64.453125
9641,-60.546875
9642,-62.500000
9643,-60.546875
9644,-64.453125
9645,-60.546875
9646,-56.640625
9647,-60.546875
9648,-56.640625
9649,-56.640625
9650,-56.640625
9651,-54.687500
9652,-52.734375
9653,-52.734375
9654,-50.781250
9655,-48.828125
9656,-48.828125
9657,-50.781250
9658,-46.875000
9659,-44.921875
9660,-41.015625
9661,-41.015625
9662,-44.921875
9663,-41.015625
9664,-41.015625
9665,-39.062500
9666,-37.109375
9667,-39.062500
9668,-33.203125
9669,-37.109375
9670,-33.203125
9671,-33.203125
9672,-33.203125
9673,-31.250000
9674,-31.250000
9675,-33.203125
9676,-29.296875
9677,-33.203125
9678,-29.296875
9679,-29.296875
9680,-29.296875
9681,-27.343750
9682,-29.296875
9683,-25.390625
9684,-27.343750
9685,-25.390625
9686,-25.390625
9687,-31.250000
9688,-25.390625
9689,-29.296875
9690,-29.296875
9691,-25.390625
9692,-27.343750
9693,-25.390625
9694,-27.343750
9695,-25.390625
9696,-25.390625
9697,-29.296875
9698,-29.296875
9699,-31.250000
9700,-29.296875
9701,-31.250000
9702,-33.203125
9703,-33.203125
9704,-35.156250
9705,-33.203125
9706,-35.156250
9707,-35.156250
9708,-37.109375
9709,-37.109375
9710,-39.062500
9711,-37.109375
9712,-39.062500
9713,-41.015625
9714,-41.015625
9715,-41.015625
9716,-42.968750
9717,-44.921875
9718,-42.968750
9719,-44.921875
9720,-41.015625
9721,-46.875000
9722,-46.875000
9723,-48.828125
9724,-44.921875
9725,-48.828125
9726,-46.875000
9727,-48.828125
9728,-46.875000
9729,-46.875000
9730,-46.875000
9731,-48.828125
9732,-50.781250
9733,-48.828125
9734,-48.828125
9735,-48.828125
9736,-50.781250
9737,-48.828125
9738,-48.828125
9739,-48.828125
9740,-48.828125
9741,-50.781250
9742,-50.781250
9743,-48.828125
9744,-50.781250
9745,-48.828125
9746,-48.828125
9747,-50.781250
9748,-48.828125
9749,-50.781250
9750,-46.875000
9751,-50.781250
9752,-48.828125
9753,-48.828125
9754,-52.734375
9755,-48.828125
9756,-46.875000
9757,-48.828125
9758,-52.734375
9759,-50.781250
9760,-50.781250
9761,-50.781250
9762,-58.593750
9763,-50.781250
9764,-48.828125
9765,-48.828125
9766,-48.828125
9767,-48.828125
9768,-54.687500
9769,-50.781250
9770,-54.687500
9771,-54.687500
9772,-50.781250
9773,-52.734375
9774,-50.781250
9775,-54.687500
9776,-50.781250
9777,-56.640625
9778,-44.921875
9779,-48.828125
9780,-50.781250
9781,-52.734375
9782,-48.828125
9783,-50.781250
9784,-52.734375
9785,-48.828125
9786,-54.687500
9787,-48.828125
9788,-50.781250
9789,-48.828125
9790,-48.828125
9791,-52.734375
9792,-48.828125
9793,-52.734375
9794,-50.781250
9795,-48.828125
9796,-62.500000
9797,-50.781250
9798,-52.734375
9799,-52.734375
9800,-50.781250
9801,-50.781250
9802,-48.828125
9803,-48.828125
9804,-48.828125
9805,-46.875000
9806,-50.781250
9807,-48.828125
9808,-52.734375
9809,-48.828125
9810,-48.828125
9811,-50.781250
9812,-48.828125
9813,-50.781250
9814,-50.781250
9815,-54.687500
9816,-52.734375
9817,-50.781250
9818,-52.734375
9819,-50.781250
9820,-52.734375
9821,-48.828125
9822,-50.781250
9823,-54.687500
9824,-48.828125
9825,-48.828125
9826,-50.781250
9827,-52.734375
9828,-54.687500
9829,-48.828125
9830,-48.828125
9831,-52.734375
9832,-48.828125
9833,-54.687500
9834,-50.781250
9835,-50.781250
9836,-50.781250
9837,-48.828125
9838,-48.828125
9839,-48.828125
9840,-50.781250
9841,-50.781250
9842,-48.828125
9843,-50.781250
9844,-48.828125
9845,-50.781250
9846,-48.828125
9847,-46.875000
9848,-48.828125
9849,-48.828125
9850,-48.828125
9851,-48.828125
9852,-48.828125
9853,-52.734375
9854,-48.828125
9855,-50.781250
9856,-48.828125
9857,-48.828125
9858,-50.781250
9859,-44.921875
9860,-50.781250
9861,-48.828125
9862,-48.828125
9863,-50.781250
9864,-48.828125
9865,-48.828125
9866,-48.828125
9867,-48.828125
9868,-52.734375
9869,-50.781250
9870,-50.781250
9871,-48.828125
9872,-48.828125
9873,-48.828125
9874,-48.828125
9875,-48.828125
9876,-48.828125
9877,-48.828125
9878,-48.828125
9879,-48.828125
9880,-48.828125
9881,-48.828125
9882,-46.875000
9883,-48.828125
9884,-48.828125
9885,-48.828125
9886,-50.781250
9887,-46.875000
9888,-48.828125
9889,-42.968750
9890,-48.828125
9891,-48.828125
9892,-46.875000
9893,-48.828125
9894,-46.875000
9895,-48.828125
9896,-46.875000
9897,-46.875000
9898,-48.828125
9899,-44.921875
9900,-48.828125
9901,-46.875000
9902,-46.875000
9903,-46.875000
9904,-50.781250
9905,-48.828125
9906,-46.875000
9907,-48.828125
9908,-48.828125
9909,-48.828125
9910,-48.828125
9911,-48.828125
9912,-46.875000
9913,-52.734375
9914,-44.921875
9915,-48.828125
9916,-48.828125
9917,-46.875000
9918,-48.828125
9919,-48.828125
9920,-48.828125
9921,-48.828125
9922,-44.921875
9923,-48.828125
9924,-46.875000
9925,-46.875000
9926,-56.640625
9927,-46.875000
9928,-48.828125
9929,-46.875000
9930,-48.828125
9931,-48.828125
9932,-46.875000
9933,-46.875000
9934,-44.921875
9935,-46.875000
9936,-44.921875
9937,-46.875000
9938,-44.921875
9939,-46.875000
9940,-44.921875
9941,-44.921875
9942,-44.921875
9943,-44.921875
9944,-44.921875
9945,-44.921875
9946,-44.921875
9947,-41.015625
9948,-44.921875
9949,-41.015625
9950,-41.015625
9951,-46.875000
9952,-41.015625
9953,-44.921875
9954,-41.015625
9955,-39.062500
9956,-41.015625
9957,-39.062500
9958,-39.062500
9959,-41.015625
9960,-35.156250
9961,-41.015625
9962,-35.156250
9963,-35.156250
9964,-44.921875
9965,-35.156250
9966,-39.062500
9967,-33.203125
9968,-33.203125
9969,-33.203125
9970,-33.203125
9971,-31.250000
9972,-29.296875
9973,-31.250000
9974,-29.296875
9975,-27.343750
9976,-27.343750
9977,-23.437500
9978,-25.390625
9979,-23.437500
9980,-19.531250
9981,-21.484375
9982,-19.531250
9983,-19.531250
9984,-17.578125
9985,-15.625000
9986,-15.625000
9987,-13.671875
9988,-9.765625
9989,-13.671875
9990,-9.765625
9991,-13.671875
9992,-9.765625
9993,-9.765625
9994,-9.765625
9995,-5.859375
9996,-9.765625
9997,-7.812500
9998,-3.906250
9999,-5.859375
10000,-3.906250
