Channel              :,CH1
Frequency            :,  ?
Period               :,  ?
PK-PK                :,89.84mV
Probe attenuation    :,10X
Voltage per ADC value:,0.122070mV
Time interval        :,400.00000us

index,CH1_Voltage(mV)
1,-9.765625
2,-9.765625
3,-9.765625
4,-9.765625
5,-9.765625
6,-9.765625
7,-9.765625
8,-7.812500
9,-9.765625
10,-9.765625
11,-9.765625
12,-9.765625
13,-9.765625
14,-11.718750
15,-9.765625
16,-13.671875
17,-7.812500
18,-9.765625
19,-3.906250
20,-9.765625
21,-13.671875
22,-9.765625
23,-9.765625
24,-9.765625
25,-9.765625
26,-9.765625
27,-9.765625
28,-15.625000
29,-11.718750
30,-9.765625
31,-9.765625
32,-9.765625
33,-9.765625
34,-9.765625
35,-9.765625
36,-11.718750
37,-9.765625
38,-9.765625
39,-9.765625
40,-9.765625
41,-9.765625
42,-7.812500
43,-13.671875
44,-7.812500
45,-9.765625
46,-9.765625
47,-9.765625
48,-13.671875
49,-9.765625
50,-9.765625
51,-9.765625
52,-9.765625
53,-13.671875
54,-7.812500
55,-13.671875
56,-9.765625
57,-11.718750
58,-13.671875
59,-9.765625
60,-9.765625
61,-13.671875
62,-13.671875
63,-9.765625
64,-13.671875
65,-9.765625
66,-13.671875
67,-11.718750
68,-9.765625
69,-9.765625
70,-9.765625
71,-13.671875
72,-9.765625
73,-9.765625
74,-13.671875
75,-9.765625
76,-13.671875
77,-9.765625
78,-11.718750
79,-9.765625
80,-13.671875
81,-9.765625
82,-11.718750
83,-9.765625
84,-9.765625
85,-9.765625
86,-9.765625
87,-7.812500
88,-9.765625
89,-11.718750
90,-9.765625
91,-9.765625
92,-13.671875
93,-9.765625
94,-11.718750
95,-9.765625
96,-17.578125
97,-9.765625
98,-9.765625
99,-15.625000
100,-9.765625
101,-13.671875
102,-9.765625
103,-9.765625
104,-11.718750
105,-9.765625
106,-9.765625
107,-13.671875
108,-9.765625
109,-13.671875
110,-9.765625
111,-9.765625
112,-11.718750
113,-9.765625
114,-13.671875
115,-13.671875
116,-9.765625
117,-13.671875
118,-9.765625
119,-13.671875
120,-11.718750
121,-11.718750
122,-13.671875
123,-9.765625
124,-13.671875
125,-13.671875
126,-11.718750
127,-13.671875
128,-17.578125
129,-13.671875
130,-13.671875
131,-15.625000
132,-17.578125
133,-17.578125
134,-17.578125
135,-23.437500
136,-19.531250
137,-29.296875
138,-23.437500
139,-23.437500
140,-25.390625
141,-25.390625
142,-25.390625
143,-29.296875
144,-31.250000
145,-29.296875
146,-29.296875
147,-31.250000
148,-31.250000
149,-33.203125
150,-31.250000
151,-33.203125
152,-33.203125
153,-33.203125
154,-35.156250
155,-29.296875
156,-33.203125
157,-35.156250
158,-33.203125
159,-33.203125
160,-35.156250
161,-33.203125
162,-33.203125
163,-33.203125
164,-42.968750
165,-33.203125
166,-31.250000
167,-33.203125
168,-29.296875
169,-31.250000
170,-31.250000
171,-25.390625
172,-29.296875
173,-25.390625
174,-23.437500
175,-23.437500
176,-21.484375
177,-25.390625
178,-25.390625
179,-21.484375
180,-19.531250
181,-21.484375
182,-17.578125
183,-17.578125
184,-17.578125
185,-17.578125
186,-15.625000
187,-15.625000
188,-17.578125
189,-15.625000
190,-17.578125
191,-17.578125
192,-17.578125
193,-15.625000
194,-15.625000
195,-17.578125
196,-13.671875
197,-17.578125
198,-15.625000
199,-17.578125
200,-17.578125
201,-17.578125
202,-21.484375
203,-19.531250
204,-21.484375
205,-21.484375
206,-19.531250
207,-25.390625
208,-23.437500
209,-27.343750
210,-29.296875
211,-29.296875
212,-33.203125
213,-31.250000
214,-33.203125
215,-35.156250
216,-35.156250
217,-37.109375
218,-37.109375
219,-39.062500
220,-41.015625
221,-39.062500
222,-44.921875
223,-44.921875
224,-41.015625
225,-44.921875
226,-42.968750
227,-44.921875
228,-46.875000
229,-44.921875
230,-46.875000
231,-46.875000
232,-60.546875
233,-48.828125
234,-48.828125
235,-48.828125
236,-48.828125
237,-48.828125
238,-50.781250
239,-48.828125
240,-46.875000
241,-46.875000
242,-48.828125
243,-48.828125
244,-46.875000
245,-44.921875
246,-41.015625
247,-44.921875
248,-41.015625
249,-39.062500
250,-41.015625
251,-37.109375
252,-37.109375
253,-35.156250
254,-33.203125
255,-33.203125
256,-29.296875
257,-31.250000
258,-33.203125
259,-29.296875
260,-31.250000
261,-25.390625
262,-25.390625
263,-25.390625
264,-25.390625
265,-25.390625
266,-25.390625
267,-25.390625
268,-25.390625
269,-21.484375
270,-25.390625
271,-25.390625
272,-25.390625
273,-29.296875
274,-25.390625
275,-31.250000
276,-31.250000
277,-33.203125
278,-33.203125
279,-33.203125
280,-37.109375
281,-37.109375
282,-31.250000
283,-39.062500
284,-41.015625
285,-41.015625
286,-41.015625
287,-44.921875
288,-41.015625
289,-44.921875
290,-46.875000
291,-33.203125
292,-46.875000
293,-44.921875
294,-46.875000
295,-50.781250
296,-46.875000
297,-50.781250
298,-48.828125
299,-50.781250
300,-56.640625
301,-48.828125
302,-54.687500
303,-50.781250
304,-50.781250
305,-56.640625
306,-48.828125
307,-56.640625
308,-52.734375
309,-54.687500
310,-54.687500
311,-54.687500
312,-50.781250
313,-52.734375
314,-48.828125
315,-54.687500
316,-54.687500
317,-48.828125
318,-54.687500
319,-48.828125
320,-44.921875
321,-46.875000
322,-41.015625
323,-44.921875
324,-41.015625
325,-41.015625
326,-41.015625
327,-35.156250
328,-37.109375
329,-33.203125
330,-41.015625
331,-33.203125
332,-33.203125
333,-31.250000
334,-31.250000
335,-31.250000
336,-31.250000
337,-25.390625
338,-29.296875
339,-29.296875
340,-27.343750
341,-29.296875
342,-29.296875
343,-25.390625
344,-25.390625
345,-29.296875
346,-31.250000
347,-29.296875
348,-31.250000
349,-31.250000
350,-31.250000
351,-33.203125
352,-33.203125
353,-35.156250
354,-33.203125
355,-35.156250
356,-37.109375
357,-37.109375
358,-41.015625
359,-41.015625
360,-41.015625
361,-41.015625
362,-41.015625
363,-41.015625
364,-41.015625
365,-41.015625
366,-46.875000
367,-44.921875
368,-44.921875
369,-48.828125
370,-46.875000
371,-48.828125
372,-44.921875
373,-48.828125
374,-50.781250
375,-48.828125
376,-50.781250
377,-56.640625
378,-54.687500
379,-48.828125
380,-50.781250
381,-52.734375
382,-50.781250
383,-52.734375
384,-52.734375
385,-50.781250
386,-54.687500
387,-54.687500
388,-50.781250
389,-52.734375
390,-50.781250
391,-56.640625
392,-54.687500
393,-52.734375
394,-56.640625
395,-52.734375
396,-54.687500
397,-50.781250
398,-54.687500
399,-54.687500
400,-50.781250
401,-56.640625
402,-50.781250
403,-54.687500
404,-56.640625
405,-54.687500
406,-60.546875
407,-54.687500
408,-54.687500
409,-50.781250
410,-52.734375
411,-52.734375
412,-52.734375
413,-54.687500
414,-52.734375
415,-52.734375
416,-52.734375
417,-52.734375
418,-48.828125
419,-52.734375
420,-50.781250
421,-48.828125
422,-56.640625
423,-46.875000
424,-52.734375
425,-48.828125
426,-48.828125
427,-44.921875
428,-48.828125
429,-46.875000
430,-44.921875
431,-46.875000
432,-42.968750
433,-44.921875
434,-42.968750
435,-41.015625
436,-44.921875
437,-41.015625
438,-41.015625
439,-41.015625
440,-39.062500
441,-39.062500
442,-39.062500
443,-37.109375
444,-39.062500
445,-37.109375
446,-35.156250
447,-35.156250
448,-33.203125
449,-39.062500
450,-31.250000
451,-35.156250
452,-33.203125
453,-33.203125
454,-33.203125
455,-31.250000
456,-33.203125
457,-31.250000
458,-33.203125
459,-33.203125
460,-31.250000
461,-33.203125
462,-33.203125
463,-31.250000
464,-33.203125
465,-33.203125
466,-33.203125
467,-37.109375
468,-31.250000
469,-31.250000
470,-33.203125
471,-33.203125
472,-35.156250
473,-33.203125
474,-33.203125
475,-33.203125
476,-33.203125
477,-35.156250
478,-33.203125
479,-33.203125
480,-37.109375
481,-35.156250
482,-37.109375
483,-35.156250
484,-33.203125
485,-39.062500
486,-33.203125
487,-39.062500
488,-37.109375
489,-37.109375
490,-41.015625
491,-35.156250
492,-41.015625
493,-39.062500
494,-37.109375
495,-41.015625
496,-39.062500
497,-41.015625
498,-41.015625
499,-41.015625
500,-41.015625
501,-41.015625
502,-41.015625
503,-42.968750
504,-41.015625
505,-44.921875
506,-41.015625
507,-41.015625
508,-41.015625
509,-41.015625
510,-44.921875
511,-41.015625
512,-44.921875
513,-44.921875
514,-41.015625
515,-44.921875
516,-41.015625
517,-41.015625
518,-44.921875
519,-41.015625
520,-44.921875
521,-44.921875
522,-44.921875
523,-46.875000
524,-44.921875
525,-41.015625
526,-42.968750
527,-41.015625
528,-44.921875
529,-41.015625
530,-42.968750
531,-44.921875
532,-44.921875
533,-44.921875
534,-44.921875
535,-44.921875
536,-41.015625
537,-44.921875
538,-44.921875
539,-44.921875
540,-46.875000
541,-42.968750
542,-44.921875
543,-44.921875
544,-44.921875
545,-46.875000
546,-44.921875
547,-46.875000
548,-44.921875
549,-44.921875
550,-48.828125
551,-44.921875
552,-48.828125
553,-46.875000
554,-44.921875
555,-48.828125
556,-48.828125
557,-48.828125
558,-50.781250
559,-44.921875
560,-44.921875
561,-48.828125
562,-46.875000
563,-48.828125
564,-48.828125
565,-48.828125
566,-48.828125
567,-48.828125
568,-48.828125
569,-50.781250
570,-48.828125
571,-50.781250
572,-50.781250
573,-48.828125
574,-48.828125
575,-46.875000
576,-50.781250
577,-48.828125
578,-48.828125
579,-48.828125
580,-44.921875
581,-50.781250
582,-48.828125
583,-48.828125
584,-48.828125
585,-48.828125
586,-48.828125
587,-46.875000
588,-48.828125
589,-48.828125
590,-48.828125
591,-50.781250
592,-50.781250
593,-46.875000
594,-50.781250
595,-50.781250
596,-50.781250
597,-48.828125
598,-48.828125
599,-48.828125
600,-46.875000
601,-48.828125
602,-46.875000
603,-50.781250
604,-44.921875
605,-44.921875
606,-50.781250
607,-48.828125
608,-48.828125
609,-46.875000
610,-48.828125
611,-44.921875
612,-46.875000
613,-44.921875
614,-48.828125
615,-44.921875
616,-41.015625
617,-42.968750
618,-41.015625
619,-41.015625
620,-37.109375
621,-35.156250
622,-39.062500
623,-33.203125
624,-35.156250
625,-31.250000
626,-31.250000
627,-33.203125
628,-29.296875
629,-29.296875
630,-29.296875
631,-25.390625
632,-27.343750
633,-23.437500
634,-23.437500
635,-25.390625
636,-21.484375
637,-21.484375
638,-19.531250
639,-21.484375
640,-19.531250
641,-17.578125
642,-17.578125
643,-15.625000
644,-17.578125
645,-19.531250
646,-15.625000
647,-15.625000
648,-13.671875
649,-11.718750
650,-13.671875
651,-13.671875
652,-13.671875
653,-11.718750
654,-13.671875
655,-13.671875
656,-13.671875
657,-11.718750
658,-17.578125
659,-13.671875
660,-13.671875
661,-9.765625
662,-9.765625
663,-13.671875
664,-15.625000
665,-15.625000
666,-13.671875
667,-15.625000
668,-17.578125
669,-19.531250
670,-19.531250
671,-17.578125
672,-17.578125
673,-19.531250
674,-19.531250
675,-21.484375
676,-23.437500
677,-25.390625
678,-25.390625
679,-23.437500
680,-25.390625
681,-25.390625
682,-25.390625
683,-25.390625
684,-25.390625
685,-29.296875
686,-29.296875
687,-29.296875
688,-33.203125
689,-31.250000
690,-37.109375
691,-33.203125
692,-33.203125
693,-33.203125
694,-33.203125
695,-35.156250
696,-35.156250
697,-35.156250
698,-39.062500
699,-37.109375
700,-37.109375
701,-41.015625
702,-37.109375
703,-41.015625
704,-39.062500
705,-41.015625
706,-39.062500
707,-41.015625
708,-42.968750
709,-39.062500
710,-41.015625
711,-41.015625
712,-41.015625
713,-41.015625
714,-41.015625
715,-41.015625
716,-41.015625
717,-46.875000
718,-42.968750
719,-39.062500
720,-41.015625
721,-41.015625
722,-37.109375
723,-39.062500
724,-35.156250
725,-33.203125
726,-29.296875
727,-33.203125
728,-33.203125
729,-33.203125
730,-31.250000
731,-33.203125
732,-31.250000
733,-31.250000
734,-29.296875
735,-27.343750
736,-29.296875
737,-25.390625
738,-25.390625
739,-23.437500
740,-23.437500
741,-23.437500
742,-21.484375
743,-19.531250
744,-19.531250
745,-19.531250
746,-19.531250
747,-17.578125
748,-15.625000
749,-17.578125
750,-13.671875
751,-15.625000
752,-13.671875
753,-11.718750
754,-13.671875
755,-7.812500
756,-13.671875
757,-9.765625
758,-13.671875
759,-9.765625
760,-7.812500
761,-7.812500
762,-9.765625
763,-7.812500
764,-9.765625
765,-7.812500
766,-7.812500
767,-5.859375
768,-7.812500
769,-7.812500
770,-5.859375
771,-7.812500
772,-7.812500
773,-5.859375
774,-7.812500
775,-5.859375
776,-9.765625
777,-7.812500
778,-9.765625
779,-9.765625
780,-7.812500
781,-17.578125
782,-9.765625
783,-9.765625
784,-11.718750
785,-19.531250
786,-13.671875
787,-9.765625
788,-15.625000
789,-11.718750
790,-13.671875
791,-15.625000
792,-13.671875
793,-17.578125
794,-13.671875
795,-13.671875
796,-17.578125
797,-15.625000
798,-19.531250
799,-17.578125
800,-17.578125
801,-19.531250
802,-17.578125
803,-19.531250
804,-19.531250
805,-17.578125
806,-23.437500
807,-17.578125
808,-23.437500
809,-19.531250
810,-19.531250
811,-19.531250
812,-21.484375
813,-19.531250
814,-17.578125
815,-19.531250
816,-17.578125
817,-21.484375
818,-17.578125
819,-17.578125
820,-17.578125
821,-17.578125
822,-17.578125
823,-15.625000
824,-17.578125
825,-15.625000
826,-15.625000
827,-15.625000
828,-17.578125
829,-13.671875
830,-13.671875
831,-15.625000
832,-13.671875
833,-15.625000
834,-9.765625
835,-9.765625
836,-9.765625
837,-9.765625
838,-9.765625
839,-5.859375
840,-7.812500
841,-3.906250
842,-1.953125
843,-3.906250
844,-3.906250
845,-3.906250
846,0.000000
847,-1.953125
848,0.000000
849,1.953125
850,1.953125
851,1.953125
852,1.953125
853,5.859375
854,5.859375
855,1.953125
856,3.906250
857,5.859375
858,1.953125
859,5.859375
860,1.953125
861,1.953125
862,5.859375
863,0.000000
864,1.953125
865,0.000000
866,0.000000
867,0.000000
868,-3.906250
869,-1.953125
870,-3.906250
871,-9.765625
872,-3.906250
873,-5.859375
874,-7.812500
875,-17.578125
876,-9.765625
877,-5.859375
878,-9.765625
879,-13.671875
880,-9.765625
881,-9.765625
882,-9.765625
883,-13.671875
884,-13.671875
885,-13.671875
886,-13.671875
887,-13.671875
888,-13.671875
889,-15.625000
890,-13.671875
891,-13.671875
892,-15.625000
893,-11.718750
894,-17.578125
895,-15.625000
896,-15.625000
897,-17.578125
898,-17.578125
899,-17.578125
900,-15.625000
901,-15.625000
902,-15.625000
903,-15.625000
904,-17.578125
905,-13.671875
906,-17.578125
907,-17.578125
908,-15.625000
909,-17.578125
910,-15.625000
911,-13.671875
912,-3.906250
913,-13.671875
914,-15.625000
915,-13.671875
916,-13.671875
917,-15.625000
918,-13.671875
919,-13.671875
920,-13.671875
921,-19.531250
922,-15.625000
923,-7.812500
924,-9.765625
925,-7.812500
926,-7.812500
927,-7.812500
928,-7.812500
929,-3.906250
930,-3.906250
931,-1.953125
932,-1.953125
933,-1.953125
934,-1.953125
935,-1.953125
936,1.953125
937,-1.953125
938,0.000000
939,1.953125
940,0.000000
941,5.859375
942,0.000000
943,1.953125
944,-1.953125
945,1.953125
946,1.953125
947,3.906250
948,3.906250
949,5.859375
950,1.953125
951,3.906250
952,1.953125
953,5.859375
954,5.859375
955,-1.953125
956,1.953125
957,3.906250
958,5.859375
959,3.906250
960,5.859375
961,5.859375
962,5.859375
963,5.859375
964,5.859375
965,5.859375
966,5.859375
967,3.906250
968,5.859375
969,-15.625000
970,5.859375
971,5.859375
972,5.859375
973,1.953125
974,5.859375
975,5.859375
976,5.859375
977,3.906250
978,3.906250
979,5.859375
980,5.859375
981,1.953125
982,5.859375
983,1.953125
984,1.953125
985,0.000000
986,0.000000
987,0.000000
988,-1.953125
989,0.000000
990,-1.953125
991,-1.953125
992,-1.953125
993,-3.906250
994,-3.906250
995,-7.812500
996,-5.859375
997,-5.859375
998,-9.765625
999,-5.859375
1000,-5.859375
1001,-9.765625
1002,-3.906250
1003,-9.765625
1004,-5.859375
1005,-9.765625
1006,-5.859375
1007,-9.765625
1008,-9.765625
1009,-9.765625
1010,-9.765625
1011,-9.765625
1012,-9.765625
1013,-11.718750
1014,-9.765625
1015,-9.765625
1016,-9.765625
1017,-9.765625
1018,-9.765625
1019,-9.765625
1020,-7.812500
1021,-9.765625
1022,-11.718750
1023,-9.765625
1024,-13.671875
1025,-9.765625
1026,-9.765625
1027,-9.765625
1028,-9.765625
1029,-13.671875
1030,-7.812500
1031,-13.671875
1032,-11.718750
1033,-9.765625
1034,-13.671875
1035,-9.765625
1036,-13.671875
1037,-9.765625
1038,-13.671875
1039,-9.765625
1040,-13.671875
1041,-13.671875
1042,-9.765625
1043,-13.671875
1044,-13.671875
1045,-9.765625
1046,-13.671875
1047,-9.765625
1048,-13.671875
1049,-9.765625
1050,-13.671875
1051,-13.671875
1052,-9.765625
1053,-13.671875
1054,-13.671875
1055,-13.671875
1056,-15.625000
1057,-23.437500
1058,-15.625000
1059,-11.718750
1060,-13.671875
1061,-13.671875
1062,-13.671875
1063,-9.765625
1064,-13.671875
1065,-13.671875
1066,-13.671875
1067,-13.671875
1068,-9.765625
1069,-13.671875
1070,-13.671875
1071,-7.812500
1072,-13.671875
1073,-13.671875
1074,-13.671875
1075,-13.671875
1076,-9.765625
1077,-13.671875
1078,-11.718750
1079,-13.671875
1080,-13.671875
1081,-9.765625
1082,-13.671875
1083,-9.765625
1084,-9.765625
1085,-11.718750
1086,-9.765625
1087,-13.671875
1088,-13.671875
1089,-9.765625
1090,-9.765625
1091,-9.765625
1092,-13.671875
1093,-13.671875
1094,-13.671875
1095,-11.718750
1096,-9.765625
1097,-11.718750
1098,-13.671875
1099,-9.765625
1100,-13.671875
1101,-9.765625
1102,-13.671875
1103,-13.671875
1104,-9.765625
1105,-13.671875
1106,-9.765625
1107,-13.671875
1108,-13.671875
1109,-9.765625
1110,-13.671875
1111,-9.765625
1112,-13.671875
1113,-15.625000
1114,-13.671875
1115,-13.671875
1116,-23.437500
1117,-15.625000
1118,-13.671875
1119,-13.671875
1120,-9.765625
1121,-17.578125
1122,-13.671875
1123,-17.578125
1124,-13.671875
1125,-13.671875
1126,-15.625000
1127,-13.671875
1128,-17.578125
1129,-15.625000
1130,-15.625000
1131,-15.625000
1132,-15.625000
1133,-17.578125
1134,-17.578125
1135,-13.671875
1136,-17.578125
1137,-17.578125
1138,-15.625000
1139,-13.671875
1140,-13.671875
1141,-19.531250
1142,-15.625000
1143,-17.578125
1144,-17.578125
1145,-11.718750
1146,-19.531250
1147,-17.578125
1148,-19.531250
1149,-17.578125
1150,-15.625000
1151,-19.531250
1152,-17.578125
1153,-17.578125
1154,-19.531250
1155,-17.578125
1156,-21.484375
1157,-5.859375
1158,-19.531250
1159,-19.531250
1160,-19.531250
1161,-19.531250
1162,-17.578125
1163,-17.578125
1164,-19.531250
1165,-17.578125
1166,-9.765625
1167,-21.484375
1168,-19.531250
1169,-21.484375
1170,-19.531250
1171,-9.765625
1172,-19.531250
1173,-17.578125
1174,-19.531250
1175,-19.531250
1176,-17.578125
1177,-17.578125
1178,-15.625000
1179,-19.531250
1180,-17.578125
1181,-15.625000
1182,-17.578125
1183,-13.671875
1184,-17.578125
1185,-17.578125
1186,-13.671875
1187,-17.578125
1188,-17.578125
1189,-15.625000
1190,-13.671875
1191,-13.671875
1192,-17.578125
1193,-13.671875
1194,-13.671875
1195,-13.671875
1196,-15.625000
1197,-17.578125
1198,-13.671875
1199,-15.625000
1200,-17.578125
1201,-13.671875
1202,-17.578125
1203,-9.765625
1204,-15.625000
1205,-15.625000
1206,-13.671875
1207,-13.671875
1208,-13.671875
1209,-15.625000
1210,-15.625000
1211,-13.671875
1212,-13.671875
1213,-13.671875
1214,-15.625000
1215,-17.578125
1216,-13.671875
1217,-15.625000
1218,-15.625000
1219,-13.671875
1220,-17.578125
1221,-17.578125
1222,-15.625000
1223,-17.578125
1224,-13.671875
1225,-31.250000
1226,-15.625000
1227,-17.578125
1228,-19.531250
1229,-17.578125
1230,-21.484375
1231,-19.531250
1232,-19.531250
1233,-23.437500
1234,-17.578125
1235,-25.390625
1236,-29.296875
1237,-25.390625
1238,-31.250000
1239,-29.296875
1240,-33.203125
1241,-33.203125
1242,-33.203125
1243,-37.109375
1244,-33.203125
1245,-37.109375
1246,-39.062500
1247,-37.109375
1248,-41.015625
1249,-41.015625
1250,-41.015625
1251,-41.015625
1252,-41.015625
1253,-44.921875
1254,-44.921875
1255,-44.921875
1256,-44.921875
1257,-41.015625
1258,-46.875000
1259,-41.015625
1260,-44.921875
1261,-44.921875
1262,-42.968750
1263,-44.921875
1264,-41.015625
1265,-42.968750
1266,-46.875000
1267,-41.015625
1268,-41.015625
1269,-41.015625
1270,-41.015625
1271,-39.062500
1272,-37.109375
1273,-35.156250
1274,-37.109375
1275,-35.156250
1276,-33.203125
1277,-33.203125
1278,-31.250000
1279,-33.203125
1280,-31.250000
1281,-31.250000
1282,-31.250000
1283,-27.343750
1284,-29.296875
1285,-29.296875
1286,-29.296875
1287,-25.390625
1288,-33.203125
1289,-29.296875
1290,-25.390625
1291,-29.296875
1292,-21.484375
1293,-25.390625
1294,-25.390625
1295,-27.343750
1296,-29.296875
1297,-25.390625
1298,-29.296875
1299,-29.296875
1300,-33.203125
1301,-31.250000
1302,-33.203125
1303,-35.156250
1304,-33.203125
1305,-35.156250
1306,-37.109375
1307,-31.250000
1308,-37.109375
1309,-37.109375
1310,-39.062500
1311,-41.015625
1312,-41.015625
1313,-41.015625
1314,-42.968750
1315,-44.921875
1316,-39.062500
1317,-44.921875
1318,-44.921875
1319,-44.921875
1320,-44.921875
1321,-44.921875
1322,-46.875000
1323,-46.875000
1324,-44.921875
1325,-48.828125
1326,-50.781250
1327,-48.828125
1328,-48.828125
1329,-48.828125
1330,-50.781250
1331,-46.875000
1332,-48.828125
1333,-48.828125
1334,-46.875000
1335,-48.828125
1336,-48.828125
1337,-48.828125
1338,-50.781250
1339,-44.921875
1340,-46.875000
1341,-42.968750
1342,-44.921875
1343,-46.875000
1344,-41.015625
1345,-41.015625
1346,-41.015625
1347,-39.062500
1348,-39.062500
1349,-37.109375
1350,-37.109375
1351,-35.156250
1352,-33.203125
1353,-35.156250
1354,-33.203125
1355,-33.203125
1356,-31.250000
1357,-29.296875
1358,-29.296875
1359,-29.296875
1360,-29.296875
1361,-25.390625
1362,-27.343750
1363,-27.343750
1364,-25.390625
1365,-25.390625
1366,-29.296875
1367,-29.296875
1368,-29.296875
1369,-33.203125
1370,-29.296875
1371,-29.296875
1372,-31.250000
1373,-31.250000
1374,-33.203125
1375,-31.250000
1376,-33.203125
1377,-35.156250
1378,-35.156250
1379,-39.062500
1380,-35.156250
1381,-39.062500
1382,-41.015625
1383,-41.015625
1384,-41.015625
1385,-44.921875
1386,-41.015625
1387,-41.015625
1388,-41.015625
1389,-44.921875
1390,-44.921875
1391,-44.921875
1392,-50.781250
1393,-46.875000
1394,-50.781250
1395,-48.828125
1396,-48.828125
1397,-50.781250
1398,-44.921875
1399,-50.781250
1400,-50.781250
1401,-52.734375
1402,-52.734375
1403,-50.781250
1404,-54.687500
1405,-52.734375
1406,-52.734375
1407,-54.687500
1408,-52.734375
1409,-54.687500
1410,-54.687500
1411,-41.015625
1412,-54.687500
1413,-52.734375
1414,-54.687500
1415,-54.687500
1416,-54.687500
1417,-56.640625
1418,-50.781250
1419,-52.734375
1420,-48.828125
1421,-52.734375
1422,-50.781250
1423,-52.734375
1424,-46.875000
1425,-48.828125
1426,-44.921875
1427,-44.921875
1428,-44.921875
1429,-41.015625
1430,-42.968750
1431,-41.015625
1432,-39.062500
1433,-37.109375
1434,-33.203125
1435,-35.156250
1436,-33.203125
1437,-31.250000
1438,-33.203125
1439,-31.250000
1440,-33.203125
1441,-29.296875
1442,-29.296875
1443,-29.296875
1444,-25.390625
1445,-25.390625
1446,-25.390625
1447,-21.484375
1448,-25.390625
1449,-21.484375
1450,-23.437500
1451,-23.437500
1452,-23.437500
1453,-25.390625
1454,-23.437500
1455,-27.343750
1456,-21.484375
1457,-21.484375
1458,-27.343750
1459,-25.390625
1460,-29.296875
1461,-29.296875
1462,-29.296875
1463,-31.250000
1464,-29.296875
1465,-29.296875
1466,-29.296875
1467,-31.250000
1468,-33.203125
1469,-33.203125
1470,-31.250000
1471,-37.109375
1472,-35.156250
1473,-37.109375
1474,-35.156250
1475,-39.062500
1476,-37.109375
1477,-37.109375
1478,-37.109375
1479,-39.062500
1480,-41.015625
1481,-41.015625
1482,-41.015625
1483,-41.015625
1484,-44.921875
1485,-42.968750
1486,-41.015625
1487,-44.921875
1488,-44.921875
1489,-44.921875
1490,-41.015625
1491,-50.781250
1492,-44.921875
1493,-41.015625
1494,-46.875000
1495,-44.921875
1496,-44.921875
1497,-44.921875
1498,-44.921875
1499,-46.875000
1500,-44.921875
1501,-46.875000
1502,-48.828125
1503,-44.921875
1504,-46.875000
1505,-46.875000
1506,-44.921875
1507,-50.781250
1508,-44.921875
1509,-46.875000
1510,-44.921875
1511,-48.828125
1512,-46.875000
1513,-44.921875
1514,-48.828125
1515,-44.921875
1516,-46.875000
1517,-48.828125
1518,-44.921875
1519,-48.828125
1520,-35.156250
1521,-46.875000
1522,-39.062500
1523,-44.921875
1524,-44.921875
1525,-46.875000
1526,-44.921875
1527,-48.828125
1528,-46.875000
1529,-44.921875
1530,-48.828125
1531,-44.921875
1532,-48.828125
1533,-46.875000
1534,-44.921875
1535,-46.875000
1536,-44.921875
1537,-48.828125
1538,-44.921875
1539,-44.921875
1540,-44.921875
1541,-44.921875
1542,-46.875000
1543,-41.015625
1544,-46.875000
1545,-42.968750
1546,-41.015625
1547,-44.921875
1548,-41.015625
1549,-41.015625
1550,-41.015625
1551,-39.062500
1552,-44.921875
1553,-41.015625
1554,-41.015625
1555,-42.968750
1556,-39.062500
1557,-44.921875
1558,-41.015625
1559,-41.015625
1560,-41.015625
1561,-39.062500
1562,-41.015625
1563,-39.062500
1564,-41.015625
1565,-41.015625
1566,-39.062500
1567,-35.156250
1568,-39.062500
1569,-39.062500
1570,-37.109375
1571,-35.156250
1572,-35.156250
1573,-37.109375
1574,-33.203125
1575,-35.156250
1576,-35.156250
1577,-31.250000
1578,-33.203125
1579,-33.203125
1580,-29.296875
1581,-33.203125
1582,-33.203125
1583,-33.203125
1584,-31.250000
1585,-29.296875
1586,-31.250000
1587,-29.296875
1588,-44.921875
1589,-29.296875
1590,-29.296875
1591,-31.250000
1592,-29.296875
1593,-31.250000
1594,-29.296875
1595,-25.390625
1596,-29.296875
1597,-29.296875
1598,-29.296875
1599,-29.296875
1600,-29.296875
1601,-33.203125
1602,-25.390625
1603,-29.296875
1604,-29.296875
1605,-29.296875
1606,-29.296875
1607,-31.250000
1608,-33.203125
1609,-31.250000
1610,-29.296875
1611,-31.250000
1612,-29.296875
1613,-29.296875
1614,-29.296875
1615,-29.296875
1616,-31.250000
1617,-33.203125
1618,-31.250000
1619,-33.203125
1620,-33.203125
1621,-33.203125
1622,-33.203125
1623,-31.250000
1624,-33.203125
1625,-33.203125
1626,-33.203125
1627,-33.203125
1628,-31.250000
1629,-35.156250
1630,-33.203125
1631,-33.203125
1632,-37.109375
1633,-33.203125
1634,-33.203125
1635,-35.156250
1636,-33.203125
1637,-37.109375
1638,-33.203125
1639,-35.156250
1640,-35.156250
1641,-39.062500
1642,-37.109375
1643,-33.203125
1644,-41.015625
1645,-35.156250
1646,-37.109375
1647,-41.015625
1648,-39.062500
1649,-39.062500
1650,-37.109375
1651,-41.015625
1652,-41.015625
1653,-39.062500
1654,-41.015625
1655,-41.015625
1656,-35.156250
1657,-33.203125
1658,-41.015625
1659,-41.015625
1660,-41.015625
1661,-41.015625
1662,-41.015625
1663,-41.015625
1664,-41.015625
1665,-41.015625
1666,-44.921875
1667,-41.015625
1668,-44.921875
1669,-44.921875
1670,-41.015625
1671,-41.015625
1672,-44.921875
1673,-44.921875
1674,-41.015625
1675,-44.921875
1676,-44.921875
1677,-46.875000
1678,-46.875000
1679,-44.921875
1680,-46.875000
1681,-46.875000
1682,-46.875000
1683,-41.015625
1684,-46.875000
1685,-50.781250
1686,-44.921875
1687,-48.828125
1688,-50.781250
1689,-48.828125
1690,-50.781250
1691,-46.875000
1692,-52.734375
1693,-48.828125
1694,-46.875000
1695,-48.828125
1696,-48.828125
1697,-39.062500
1698,-50.781250
1699,-50.781250
1700,-52.734375
1701,-50.781250
1702,-50.781250
1703,-50.781250
1704,-52.734375
1705,-54.687500
1706,-44.921875
1707,-54.687500
1708,-56.640625
1709,-50.781250
1710,-56.640625
1711,-54.687500
1712,-54.687500
1713,-52.734375
1714,-54.687500
1715,-54.687500
1716,-54.687500
1717,-48.828125
1718,-54.687500
1719,-52.734375
1720,-56.640625
1721,-56.640625
1722,-50.781250
1723,-54.687500
1724,-52.734375
1725,-56.640625
1726,-56.640625
1727,-52.734375
1728,-56.640625
1729,-52.734375
1730,-56.640625
1731,-54.687500
1732,-52.734375
1733,-54.687500
1734,-56.640625
1735,-54.687500
1736,-56.640625
1737,-54.687500
1738,-56.640625
1739,-56.640625
1740,-52.734375
1741,-56.640625
1742,-52.734375
1743,-56.640625
1744,-56.640625
1745,-54.687500
1746,-56.640625
1747,-54.687500
1748,-56.640625
1749,-56.640625
1750,-54.687500
1751,-54.687500
1752,-56.640625
1753,-54.687500
1754,-54.687500
1755,-56.640625
1756,-44.921875
1757,-54.687500
1758,-54.687500
1759,-50.781250
1760,-48.828125
1761,-50.781250
1762,-48.828125
1763,-44.921875
1764,-46.875000
1765,-41.015625
1766,-48.828125
1767,-39.062500
1768,-39.062500
1769,-37.109375
1770,-33.203125
1771,-35.156250
1772,-33.203125
1773,-31.250000
1774,-29.296875
1775,-29.296875
1776,-29.296875
1777,-27.343750
1778,-23.437500
1779,-29.296875
1780,-21.484375
1781,-17.578125
1782,-19.531250
1783,-15.625000
1784,-17.578125
1785,-15.625000
1786,-15.625000
1787,-13.671875
1788,-15.625000
1789,-13.671875
1790,-9.765625
1791,-13.671875
1792,-13.671875
1793,-9.765625
1794,-13.671875
1795,-9.765625
1796,-13.671875
1797,-11.718750
1798,-13.671875
1799,-13.671875
1800,-11.718750
1801,-13.671875
1802,-13.671875
1803,-13.671875
1804,-19.531250
1805,-17.578125
1806,-17.578125
1807,-19.531250
1808,-17.578125
1809,-21.484375
1810,-19.531250
1811,-19.531250
1812,-25.390625
1813,-21.484375
1814,-25.390625
1815,-21.484375
1816,-25.390625
1817,-29.296875
1818,-29.296875
1819,-29.296875
1820,-29.296875
1821,-29.296875
1822,-29.296875
1823,-31.250000
1824,-25.390625
1825,-29.296875
1826,-31.250000
1827,-29.296875
1828,-29.296875
1829,-27.343750
1830,-33.203125
1831,-31.250000
1832,-29.296875
1833,-29.296875
1834,-29.296875
1835,-29.296875
1836,-29.296875
1837,-29.296875
1838,-29.296875
1839,-25.390625
1840,-29.296875
1841,-25.390625
1842,-25.390625
1843,-25.390625
1844,-23.437500
1845,-25.390625
1846,-23.437500
1847,-23.437500
1848,-23.437500
1849,-21.484375
1850,-19.531250
1851,-19.531250
1852,-17.578125
1853,-17.578125
1854,-17.578125
1855,-17.578125
1856,-17.578125
1857,-15.625000
1858,-17.578125
1859,-15.625000
1860,-15.625000
1861,-9.765625
1862,-13.671875
1863,-13.671875
1864,-15.625000
1865,-7.812500
1866,-15.625000
1867,-13.671875
1868,-13.671875
1869,-17.578125
1870,-13.671875
1871,-13.671875
1872,-9.765625
1873,-13.671875
1874,-13.671875
1875,-13.671875
1876,-15.625000
1877,-13.671875
1878,-13.671875
1879,-17.578125
1880,-17.578125
1881,-15.625000
1882,-17.578125
1883,-17.578125
1884,-19.531250
1885,-17.578125
1886,-19.531250
1887,-19.531250
1888,-21.484375
1889,-21.484375
1890,-17.578125
1891,-23.437500
1892,-19.531250
1893,-21.484375
1894,-23.437500
1895,-21.484375
1896,-23.437500
1897,-17.578125
1898,-25.390625
1899,-21.484375
1900,-19.531250
1901,-29.296875
1902,-19.531250
1903,-19.531250
1904,-23.437500
1905,-19.531250
1906,-19.531250
1907,-21.484375
1908,-19.531250
1909,-19.531250
1910,-17.578125
1911,-17.578125
1912,-17.578125
1913,-13.671875
1914,-17.578125
1915,-15.625000
1916,-13.671875
1917,-15.625000
1918,-9.765625
1919,-11.718750
1920,-7.812500
1921,-5.859375
1922,-7.812500
1923,-7.812500
1924,-23.437500
1925,-5.859375
1926,-5.859375
1927,-5.859375
1928,-3.906250
1929,-1.953125
1930,-5.859375
1931,-1.953125
1932,-3.906250
1933,-11.718750
1934,-5.859375
1935,-5.859375
1936,-5.859375
1937,-7.812500
1938,-5.859375
1939,-9.765625
1940,-9.765625
1941,-9.765625
1942,-9.765625
1943,-9.765625
1944,-9.765625
1945,-13.671875
1946,-13.671875
1947,-13.671875
1948,-13.671875
1949,-9.765625
1950,-15.625000
1951,-9.765625
1952,-17.578125
1953,-15.625000
1954,-15.625000
1955,-17.578125
1956,-13.671875
1957,-17.578125
1958,-17.578125
1959,-17.578125
1960,-19.531250
1961,-17.578125
1962,-23.437500
1963,-23.437500
1964,-19.531250
1965,-17.578125
1966,-17.578125
1967,-19.531250
1968,-17.578125
1969,-17.578125
1970,-15.625000
1971,-13.671875
1972,-13.671875
1973,-15.625000
1974,-9.765625
1975,-15.625000
1976,-15.625000
1977,-13.671875
1978,-13.671875
1979,-13.671875
1980,-13.671875
1981,-9.765625
1982,-9.765625
1983,-1.953125
1984,-9.765625
1985,-7.812500
1986,-7.812500
1987,-1.953125
1988,-5.859375
1989,-1.953125
1990,-3.906250
1991,-1.953125
1992,-1.953125
1993,-1.953125
1994,-3.906250
1995,0.000000
1996,0.000000
1997,3.906250
1998,1.953125
1999,3.906250
2000,5.859375
2001,13.671875
2002,1.953125
2003,0.000000
2004,-1.953125
2005,0.000000
2006,-1.953125
2007,-3.906250
2008,-3.906250
2009,-3.906250
2010,-1.953125
2011,-9.765625
2012,-5.859375
2013,-5.859375
2014,-9.765625
2015,-9.765625
2016,-9.765625
2017,-9.765625
2018,-7.812500
2019,-11.718750
2020,-13.671875
2021,-13.671875
2022,-13.671875
2023,-11.718750
2024,-17.578125
2025,-15.625000
2026,-13.671875
2027,-17.578125
2028,-15.625000
2029,-15.625000
2030,-17.578125
2031,-13.671875
2032,-15.625000
2033,-13.671875
2034,-15.625000
2035,-15.625000
2036,-17.578125
2037,-15.625000
2038,-15.625000
2039,-17.578125
2040,-13.671875
2041,-17.578125
2042,-13.671875
2043,-15.625000
2044,-15.625000
2045,-9.765625
2046,-15.625000
2047,-13.671875
2048,-9.765625
2049,-13.671875
2050,-9.765625
2051,-13.671875
2052,-9.765625
2053,-7.812500
2054,-9.765625
2055,-5.859375
2056,-3.906250
2057,-3.906250
2058,13.671875
2059,-5.859375
2060,5.859375
2061,-1.953125
2062,-1.953125
2063,-1.953125
2064,0.000000
2065,-3.906250
2066,-1.953125
2067,1.953125
2068,0.000000
2069,1.953125
2070,-1.953125
2071,1.953125
2072,1.953125
2073,0.000000
2074,5.859375
2075,1.953125
2076,1.953125
2077,1.953125
2078,1.953125
2079,5.859375
2080,1.953125
2081,3.906250
2082,1.953125
2083,3.906250
2084,1.953125
2085,1.953125
2086,5.859375
2087,5.859375
2088,1.953125
2089,1.953125
2090,0.000000
2091,0.000000
2092,0.000000
2093,-1.953125
2094,0.000000
2095,-1.953125
2096,-3.906250
2097,-3.906250
2098,-5.859375
2099,-3.906250
2100,-7.812500
2101,-1.953125
2102,-7.812500
2103,-9.765625
2104,-7.812500
2105,-13.671875
2106,-9.765625
2107,-11.718750
2108,-9.765625
2109,-13.671875
2110,-13.671875
2111,-13.671875
2112,-13.671875
2113,-15.625000
2114,-13.671875
2115,-13.671875
2116,-15.625000
2117,-13.671875
2118,-15.625000
2119,-15.625000
2120,-13.671875
2121,-17.578125
2122,-15.625000
2123,-17.578125
2124,-15.625000
2125,-15.625000
2126,-17.578125
2127,-15.625000
2128,-17.578125
2129,-15.625000
2130,-15.625000
2131,-19.531250
2132,-17.578125
2133,-17.578125
2134,-17.578125
2135,-17.578125
2136,-17.578125
2137,-17.578125
2138,-15.625000
2139,-19.531250
2140,-17.578125
2141,-19.531250
2142,-17.578125
2143,-17.578125
2144,-19.531250
2145,-17.578125
2146,-19.531250
2147,-17.578125
2148,-15.625000
2149,-17.578125
2150,-17.578125
2151,-17.578125
2152,-17.578125
2153,-19.531250
2154,-19.531250
2155,-17.578125
2156,-19.531250
2157,-17.578125
2158,-15.625000
2159,-19.531250
2160,-19.531250
2161,-19.531250
2162,-19.531250
2163,-17.578125
2164,-19.531250
2165,-17.578125
2166,-17.578125
2167,-19.531250
2168,-17.578125
2169,-17.578125
2170,-21.484375
2171,-17.578125
2172,-21.484375
2173,-19.531250
2174,-19.531250
2175,-23.437500
2176,-17.578125
2177,-19.531250
2178,-17.578125
2179,-19.531250
2180,-21.484375
2181,-17.578125
2182,-19.531250
2183,-17.578125
2184,-17.578125
2185,-19.531250
2186,-17.578125
2187,-19.531250
2188,-17.578125
2189,-17.578125
2190,-19.531250
2191,-17.578125
2192,-17.578125
2193,-19.531250
2194,-13.671875
2195,-21.484375
2196,-19.531250
2197,-19.531250
2198,-19.531250
2199,-17.578125
2200,-21.484375
2201,-17.578125
2202,-15.625000
2203,-19.531250
2204,-17.578125
2205,-21.484375
2206,-19.531250
2207,-19.531250
2208,-21.484375
2209,-19.531250
2210,-21.484375
2211,-19.531250
2212,-19.531250
2213,-17.578125
2214,-19.531250
2215,-19.531250
2216,-19.531250
2217,-15.625000
2218,-21.484375
2219,-17.578125
2220,-17.578125
2221,-17.578125
2222,-15.625000
2223,-19.531250
2224,-21.484375
2225,-25.390625
2226,-19.531250
2227,-17.578125
2228,-13.671875
2229,-19.531250
2230,-17.578125
2231,-19.531250
2232,-17.578125
2233,-17.578125
2234,-19.531250
2235,-17.578125
2236,-17.578125
2237,-17.578125
2238,-19.531250
2239,-19.531250
2240,-17.578125
2241,-21.484375
2242,-15.625000
2243,-19.531250
2244,-19.531250
2245,-19.531250
2246,-19.531250
2247,-17.578125
2248,-17.578125
2249,-19.531250
2250,-17.578125
2251,-13.671875
2252,-19.531250
2253,-17.578125
2254,-19.531250
2255,-19.531250
2256,-17.578125
2257,-17.578125
2258,-17.578125
2259,-17.578125
2260,-17.578125
2261,-17.578125
2262,-17.578125
2263,-15.625000
2264,-17.578125
2265,-15.625000
2266,-17.578125
2267,-17.578125
2268,-15.625000
2269,-15.625000
2270,-17.578125
2271,-13.671875
2272,-17.578125
2273,-13.671875
2274,-9.765625
2275,-13.671875
2276,-11.718750
2277,-15.625000
2278,-13.671875
2279,-13.671875
2280,-13.671875
2281,-7.812500
2282,-9.765625
2283,-7.812500
2284,-9.765625
2285,-13.671875
2286,-9.765625
2287,-7.812500
2288,-9.765625
2289,-13.671875
2290,-9.765625
2291,-9.765625
2292,-11.718750
2293,-9.765625
2294,-9.765625
2295,-11.718750
2296,-5.859375
2297,-13.671875
2298,-9.765625
2299,-9.765625
2300,-13.671875
2301,-7.812500
2302,-13.671875
2303,-9.765625
2304,-11.718750
2305,-9.765625
2306,-9.765625
2307,-13.671875
2308,-9.765625
2309,-13.671875
2310,-9.765625
2311,-13.671875
2312,-13.671875
2313,-15.625000
2314,-13.671875
2315,-13.671875
2316,-15.625000
2317,-15.625000
2318,-19.531250
2319,-23.437500
2320,-25.390625
2321,-23.437500
2322,-23.437500
2323,-25.390625
2324,-29.296875
2325,-25.390625
2326,-31.250000
2327,-29.296875
2328,-31.250000
2329,-33.203125
2330,-31.250000
2331,-33.203125
2332,-33.203125
2333,-33.203125
2334,-39.062500
2335,-37.109375
2336,-39.062500
2337,-39.062500
2338,-39.062500
2339,-42.968750
2340,-39.062500
2341,-39.062500
2342,-41.015625
2343,-41.015625
2344,-44.921875
2345,-41.015625
2346,-60.546875
2347,-44.921875
2348,-42.968750
2349,-44.921875
2350,-41.015625
2351,-46.875000
2352,-44.921875
2353,-41.015625
2354,-44.921875
2355,-41.015625
2356,-41.015625
2357,-41.015625
2358,-39.062500
2359,-39.062500
2360,-35.156250
2361,-35.156250
2362,-35.156250
2363,-33.203125
2364,-33.203125
2365,-29.296875
2366,-29.296875
2367,-31.250000
2368,-29.296875
2369,-29.296875
2370,-29.296875
2371,-23.437500
2372,-29.296875
2373,-23.437500
2374,-23.437500
2375,-23.437500
2376,-21.484375
2377,-23.437500
2378,-21.484375
2379,-19.531250
2380,-21.484375
2381,-19.531250
2382,-19.531250
2383,-19.531250
2384,-17.578125
2385,-21.484375
2386,-19.531250
2387,-21.484375
2388,-21.484375
2389,-19.531250
2390,-25.390625
2391,-21.484375
2392,-29.296875
2393,-25.390625
2394,-29.296875
2395,-31.250000
2396,-29.296875
2397,-35.156250
2398,-33.203125
2399,-35.156250
2400,-35.156250
2401,-35.156250
2402,-41.015625
2403,-39.062500
2404,-41.015625
2405,-39.062500
2406,-42.968750
2407,-44.921875
2408,-44.921875
2409,-44.921875
2410,-46.875000
2411,-46.875000
2412,-44.921875
2413,-48.828125
2414,-48.828125
2415,-50.781250
2416,-50.781250
2417,-50.781250
2418,-54.687500
2419,-48.828125
2420,-52.734375
2421,-50.781250
2422,-48.828125
2423,-50.781250
2424,-52.734375
2425,-52.734375
2426,-54.687500
2427,-48.828125
2428,-48.828125
2429,-50.781250
2430,-50.781250
2431,-50.781250
2432,-44.921875
2433,-46.875000
2434,-46.875000
2435,-46.875000
2436,-46.875000
2437,-48.828125
2438,-44.921875
2439,-42.968750
2440,-41.015625
2441,-41.015625
2442,-41.015625
2443,-39.062500
2444,-37.109375
2445,-33.203125
2446,-41.015625
2447,-37.109375
2448,-33.203125
2449,-37.109375
2450,-33.203125
2451,-37.109375
2452,-35.156250
2453,-33.203125
2454,-35.156250
2455,-44.921875
2456,-37.109375
2457,-37.109375
2458,-35.156250
2459,-37.109375
2460,-37.109375
2461,-37.109375
2462,-41.015625
2463,-37.109375
2464,-41.015625
2465,-41.015625
2466,-41.015625
2467,-44.921875
2468,-44.921875
2469,-44.921875
2470,-46.875000
2471,-44.921875
2472,-44.921875
2473,-46.875000
2474,-50.781250
2475,-48.828125
2476,-48.828125
2477,-48.828125
2478,-48.828125
2479,-48.828125
2480,-52.734375
2481,-54.687500
2482,-50.781250
2483,-54.687500
2484,-48.828125
2485,-54.687500
2486,-48.828125
2487,-56.640625
2488,-54.687500
2489,-50.781250
2490,-52.734375
2491,-52.734375
2492,-54.687500
2493,-54.687500
2494,-50.781250
2495,-50.781250
2496,-52.734375
2497,-52.734375
2498,-52.734375
2499,-48.828125
2500,-48.828125
2501,-50.781250
2502,-46.875000
2503,-50.781250
2504,-44.921875
2505,-50.781250
2506,-44.921875
2507,-44.921875
2508,-46.875000
2509,-41.015625
2510,-44.921875
2511,-44.921875
2512,-44.921875
2513,-44.921875
2514,-29.296875
2515,-41.015625
2516,-41.015625
2517,-41.015625
2518,-41.015625
2519,-41.015625
2520,-41.015625
2521,-41.015625
2522,-41.015625
2523,-31.250000
2524,-44.921875
2525,-44.921875
2526,-46.875000
2527,-42.968750
2528,-46.875000
2529,-44.921875
2530,-44.921875
2531,-46.875000
2532,-44.921875
2533,-48.828125
2534,-50.781250
2535,-48.828125
2536,-46.875000
2537,-46.875000
2538,-54.687500
2539,-48.828125
2540,-52.734375
2541,-48.828125
2542,-54.687500
2543,-52.734375
2544,-52.734375
2545,-54.687500
2546,-56.640625
2547,-52.734375
2548,-54.687500
2549,-48.828125
2550,-56.640625
2551,-52.734375
2552,-52.734375
2553,-56.640625
2554,-50.781250
2555,-56.640625
2556,-54.687500
2557,-50.781250
2558,-56.640625
2559,-48.828125
2560,-56.640625
2561,-54.687500
2562,-54.687500
2563,-54.687500
2564,-56.640625
2565,-54.687500
2566,-54.687500
2567,-56.640625
2568,-52.734375
2569,-54.687500
2570,-50.781250
2571,-52.734375
2572,-48.828125
2573,-48.828125
2574,-52.734375
2575,-46.875000
2576,-46.875000
2577,-54.687500
2578,-44.921875
2579,-44.921875
2580,-44.921875
2581,-41.015625
2582,-44.921875
2583,-42.968750
2584,-41.015625
2585,-44.921875
2586,-39.062500
2587,-44.921875
2588,-41.015625
2589,-41.015625
2590,-41.015625
2591,-37.109375
2592,-41.015625
2593,-39.062500
2594,-41.015625
2595,-39.062500
2596,-41.015625
2597,-41.015625
2598,-39.062500
2599,-41.015625
2600,-41.015625
2601,-41.015625
2602,-41.015625
2603,-41.015625
2604,-41.015625
2605,-44.921875
2606,-41.015625
2607,-44.921875
2608,-42.968750
2609,-44.921875
2610,-46.875000
2611,-44.921875
2612,-46.875000
2613,-46.875000
2614,-46.875000
2615,-58.593750
2616,-46.875000
2617,-50.781250
2618,-48.828125
2619,-48.828125
2620,-50.781250
2621,-50.781250
2622,-50.781250
2623,-50.781250
2624,-50.781250
2625,-52.734375
2626,-56.640625
2627,-54.687500
2628,-56.640625
2629,-52.734375
2630,-56.640625
2631,-56.640625
2632,-54.687500
2633,-54.687500
2634,-54.687500
2635,-54.687500
2636,-56.640625
2637,-56.640625
2638,-56.640625
2639,-56.640625
2640,-54.687500
2641,-56.640625
2642,-56.640625
2643,-56.640625
2644,-56.640625
2645,-56.640625
2646,-56.640625
2647,-56.640625
2648,-58.593750
2649,-56.640625
2650,-54.687500
2651,-60.546875
2652,-54.687500
2653,-56.640625
2654,-56.640625
2655,-60.546875
2656,-56.640625
2657,-56.640625
2658,-56.640625
2659,-56.640625
2660,-58.593750
2661,-58.593750
2662,-60.546875
2663,-56.640625
2664,-62.500000
2665,-54.687500
2666,-56.640625
2667,-56.640625
2668,-56.640625
2669,-60.546875
2670,-87.890625
2671,-56.640625
2672,-56.640625
2673,-56.640625
2674,-56.640625
2675,-52.734375
2676,-58.593750
2677,-56.640625
2678,-60.546875
2679,-60.546875
2680,-56.640625
2681,-56.640625
2682,-64.453125
2683,-56.640625
2684,-58.593750
2685,-56.640625
2686,-56.640625
2687,-56.640625
2688,-56.640625
2689,-56.640625
2690,-56.640625
2691,-56.640625
2692,-56.640625
2693,-54.687500
2694,-60.546875
2695,-56.640625
2696,-54.687500
2697,-56.640625
2698,-56.640625
2699,-56.640625
2700,-56.640625
2701,-54.687500
2702,-56.640625
2703,-56.640625
2704,-56.640625
2705,-56.640625
2706,-50.781250
2707,-56.640625
2708,-56.640625
2709,-56.640625
2710,-56.640625
2711,-52.734375
2712,-56.640625
2713,-56.640625
2714,-56.640625
2715,-56.640625
2716,-54.687500
2717,-56.640625
2718,-56.640625
2719,-56.640625
2720,-56.640625
2721,-54.687500
2722,-54.687500
2723,-50.781250
2724,-54.687500
2725,-52.734375
2726,-54.687500
2727,-56.640625
2728,-56.640625
2729,-54.687500
2730,-54.687500
2731,-54.687500
2732,-54.687500
2733,-54.687500
2734,-54.687500
2735,-54.687500
2736,-54.687500
2737,-52.734375
2738,-56.640625
2739,-52.734375
2740,-54.687500
2741,-54.687500
2742,-52.734375
2743,-56.640625
2744,-52.734375
2745,-56.640625
2746,-56.640625
2747,-52.734375
2748,-54.687500
2749,-52.734375
2750,-56.640625
2751,-52.734375
2752,-52.734375
2753,-56.640625
2754,-54.687500
2755,-56.640625
2756,-52.734375
2757,-56.640625
2758,-56.640625
2759,-54.687500
2760,-56.640625
2761,-54.687500
2762,-54.687500
2763,-58.593750
2764,-54.687500
2765,-54.687500
2766,-54.687500
2767,-54.687500
2768,-56.640625
2769,-50.781250
2770,-54.687500
2771,-56.640625
2772,-54.687500
2773,-56.640625
2774,-54.687500
2775,-54.687500
2776,-56.640625
2777,-54.687500
2778,-54.687500
2779,-56.640625
2780,-54.687500
2781,-54.687500
2782,-54.687500
2783,-54.687500
2784,-56.640625
2785,-54.687500
2786,-56.640625
2787,-54.687500
2788,-56.640625
2789,-54.687500
2790,-56.640625
2791,-44.921875
2792,-54.687500
2793,-56.640625
2794,-54.687500
2795,-56.640625
2796,-54.687500
2797,-54.687500
2798,-60.546875
2799,-54.687500
2800,-56.640625
2801,-54.687500
2802,-52.734375
2803,-56.640625
2804,-54.687500
2805,-60.546875
2806,-56.640625
2807,-56.640625
2808,-56.640625
2809,-52.734375
2810,-56.640625
2811,-56.640625
2812,-56.640625
2813,-54.687500
2814,-60.546875
2815,-56.640625
2816,-60.546875
2817,-56.640625
2818,-54.687500
2819,-60.546875
2820,-56.640625
2821,-56.640625
2822,-56.640625
2823,-56.640625
2824,-56.640625
2825,-56.640625
2826,-54.687500
2827,-54.687500
2828,-56.640625
2829,-56.640625
2830,-56.640625
2831,-56.640625
2832,-62.500000
2833,-56.640625
2834,-56.640625
2835,-56.640625
2836,-56.640625
2837,-56.640625
2838,-56.640625
2839,-56.640625
2840,-56.640625
2841,-56.640625
2842,-56.640625
2843,-56.640625
2844,-56.640625
2845,-56.640625
2846,-54.687500
2847,-56.640625
2848,-56.640625
2849,-54.687500
2850,-56.640625
2851,-48.828125
2852,-56.640625
2853,-56.640625
2854,-54.687500
2855,-60.546875
2856,-54.687500
2857,-56.640625
2858,-56.640625
2859,-54.687500
2860,-56.640625
2861,-52.734375
2862,-56.640625
2863,-52.734375
2864,-54.687500
2865,-56.640625
2866,-54.687500
2867,-54.687500
2868,-56.640625
2869,-54.687500
2870,-56.640625
2871,-56.640625
2872,-56.640625
2873,-56.640625
2874,-56.640625
2875,-56.640625
2876,-52.734375
2877,-52.734375
2878,-56.640625
2879,-54.687500
2880,-56.640625
2881,-54.687500
2882,-54.687500
2883,-56.640625
2884,-56.640625
2885,-56.640625
2886,-58.593750
2887,-52.734375
2888,-54.687500
2889,-52.734375
2890,-56.640625
2891,-56.640625
2892,-50.781250
2893,-56.640625
2894,-56.640625
2895,-56.640625
2896,-56.640625
2897,-56.640625
2898,-60.546875
2899,-56.640625
2900,-56.640625
2901,-56.640625
2902,-56.640625
2903,-56.640625
2904,-56.640625
2905,-52.734375
2906,-56.640625
2907,-56.640625
2908,-50.781250
2909,-52.734375
2910,-48.828125
2911,-52.734375
2912,-48.828125
2913,-46.875000
2914,-48.828125
2915,-46.875000
2916,-44.921875
2917,-44.921875
2918,-42.968750
2919,-41.015625
2920,-41.015625
2921,-37.109375
2922,-41.015625
2923,-35.156250
2924,-35.156250
2925,-33.203125
2926,-31.250000
2927,-33.203125
2928,-35.156250
2929,-29.296875
2930,-29.296875
2931,-25.390625
2932,-25.390625
2933,-25.390625
2934,-25.390625
2935,-25.390625
2936,-25.390625
2937,-25.390625
2938,-25.390625
2939,-23.437500
2940,-25.390625
2941,-19.531250
2942,-21.484375
2943,-25.390625
2944,-21.484375
2945,-23.437500
2946,-19.531250
2947,-23.437500
2948,-23.437500
2949,-23.437500
2950,-29.296875
2951,-25.390625
2952,-23.437500
2953,-29.296875
2954,-23.437500
2955,-29.296875
2956,-29.296875
2957,-25.390625
2958,-29.296875
2959,-29.296875
2960,-31.250000
2961,-29.296875
2962,-29.296875
2963,-33.203125
2964,-33.203125
2965,-33.203125
2966,-33.203125
2967,-33.203125
2968,-33.203125
2969,-35.156250
2970,-37.109375
2971,-39.062500
2972,-37.109375
2973,-39.062500
2974,-41.015625
2975,-41.015625
2976,-41.015625
2977,-41.015625
2978,-44.921875
2979,-44.921875
2980,-41.015625
2981,-44.921875
2982,-44.921875
2983,-46.875000
2984,-46.875000
2985,-48.828125
2986,-48.828125
2987,-48.828125
2988,-48.828125
2989,-48.828125
2990,-48.828125
2991,-48.828125
2992,-48.828125
2993,-48.828125
2994,-52.734375
2995,-48.828125
2996,-52.734375
2997,-50.781250
2998,-50.781250
2999,-48.828125
3000,-50.781250
3001,-50.781250
3002,-46.875000
3003,-48.828125
3004,-48.828125
3005,-44.921875
3006,-48.828125
3007,-42.968750
3008,-44.921875
3009,-52.734375
3010,-39.062500
3011,-39.062500
3012,-39.062500
3013,-35.156250
3014,-37.109375
3015,-33.203125
3016,-33.203125
3017,-33.203125
3018,-31.250000
3019,-31.250000
3020,-31.250000
3021,-29.296875
3022,-29.296875
3023,-25.390625
3024,-29.296875
3025,-23.437500
3026,-29.296875
3027,-19.531250
3028,-21.484375
3029,-25.390625
3030,-23.437500
3031,-23.437500
3032,-21.484375
3033,-21.484375
3034,-19.531250
3035,-21.484375
3036,-21.484375
3037,-17.578125
3038,-19.531250
3039,-19.531250
3040,-17.578125
3041,-21.484375
3042,-17.578125
3043,-19.531250
3044,-19.531250
3045,-19.531250
3046,-21.484375
3047,-15.625000
3048,-19.531250
3049,-19.531250
3050,-15.625000
3051,-19.531250
3052,-13.671875
3053,-17.578125
3054,-17.578125
3055,-15.625000
3056,-19.531250
3057,-13.671875
3058,-19.531250
3059,-17.578125
3060,-15.625000
3061,-13.671875
3062,-19.531250
3063,-17.578125
3064,-17.578125
3065,-19.531250
3066,-17.578125
3067,-19.531250
3068,-19.531250
3069,-21.484375
3070,-25.390625
3071,-19.531250
3072,-25.390625
3073,-23.437500
3074,-25.390625
3075,-25.390625
3076,-23.437500
3077,-25.390625
3078,-27.343750
3079,-25.390625
3080,-29.296875
3081,-25.390625
3082,-25.390625
3083,-29.296875
3084,-29.296875
3085,-31.250000
3086,-25.390625
3087,-29.296875
3088,-31.250000
3089,-29.296875
3090,-31.250000
3091,-29.296875
3092,-29.296875
3093,-29.296875
3094,-29.296875
3095,-39.062500
3096,-31.250000
3097,-29.296875
3098,-29.296875
3099,-25.390625
3100,-29.296875
3101,-25.390625
3102,-25.390625
3103,-29.296875
3104,-17.578125
3105,-27.343750
3106,-25.390625
3107,-21.484375
3108,-25.390625
3109,-21.484375
3110,-25.390625
3111,-21.484375
3112,-21.484375
3113,-21.484375
3114,-17.578125
3115,-21.484375
3116,-19.531250
3117,-19.531250
3118,-19.531250
3119,-17.578125
3120,-19.531250
3121,-17.578125
3122,-17.578125
3123,-21.484375
3124,-17.578125
3125,-17.578125
3126,-17.578125
3127,-17.578125
3128,-15.625000
3129,-15.625000
3130,-17.578125
3131,-17.578125
3132,-13.671875
3133,-19.531250
3134,-17.578125
3135,-17.578125
3136,-17.578125
3137,-15.625000
3138,-17.578125
3139,-17.578125
3140,-17.578125
3141,-19.531250
3142,-17.578125
3143,-17.578125
3144,-17.578125
3145,-17.578125
3146,-19.531250
3147,-15.625000
3148,-17.578125
3149,-17.578125
3150,-15.625000
3151,-21.484375
3152,-17.578125
3153,-17.578125
3154,-17.578125
3155,-15.625000
3156,-19.531250
3157,-15.625000
3158,-19.531250
3159,-19.531250
3160,-15.625000
3161,-21.484375
3162,-15.625000
3163,-17.578125
3164,-13.671875
3165,-15.625000
3166,-17.578125
3167,-17.578125
3168,-17.578125
3169,-17.578125
3170,-17.578125
3171,-17.578125
3172,-17.578125
3173,-17.578125
3174,-17.578125
3175,-21.484375
3176,-15.625000
3177,-15.625000
3178,-15.625000
3179,-17.578125
3180,-15.625000
3181,-17.578125
3182,-15.625000
3183,-17.578125
3184,-17.578125
3185,-17.578125
3186,-17.578125
3187,-15.625000
3188,-17.578125
3189,-17.578125
3190,-19.531250
3191,-21.484375
3192,-19.531250
3193,-17.578125
3194,-17.578125
3195,-17.578125
3196,-17.578125
3197,-17.578125
3198,-17.578125
3199,-19.531250
3200,-15.625000
3201,-17.578125
3202,-21.484375
3203,-17.578125
3204,-27.343750
3205,-19.531250
3206,-19.531250
3207,-19.531250
3208,-19.531250
3209,-23.437500
3210,-19.531250
3211,-19.531250
3212,-21.484375
3213,-29.296875
3214,-21.484375
3215,-23.437500
3216,-17.578125
3217,-21.484375
3218,-21.484375
3219,-21.484375
3220,-19.531250
3221,-19.531250
3222,-23.437500
3223,-19.531250
3224,-21.484375
3225,-23.437500
3226,-21.484375
3227,-23.437500
3228,-25.390625
3229,-21.484375
3230,-23.437500
3231,-21.484375
3232,-23.437500
3233,-23.437500
3234,-21.484375
3235,-25.390625
3236,-19.531250
3237,-23.437500
3238,-23.437500
3239,-21.484375
3240,-25.390625
3241,-23.437500
3242,-23.437500
3243,-25.390625
3244,-23.437500
3245,-23.437500
3246,-19.531250
3247,-23.437500
3248,-21.484375
3249,-21.484375
3250,-21.484375
3251,-23.437500
3252,-21.484375
3253,-25.390625
3254,-21.484375
3255,-23.437500
3256,-23.437500
3257,-21.484375
3258,-25.390625
3259,-19.531250
3260,-23.437500
3261,-23.437500
3262,-21.484375
3263,-19.531250
3264,-23.437500
3265,-23.437500
3266,-23.437500
3267,-19.531250
3268,-23.437500
3269,-21.484375
3270,-19.531250
3271,-21.484375
3272,-21.484375
3273,-21.484375
3274,-19.531250
3275,-19.531250
3276,-23.437500
3277,-21.484375
3278,-21.484375
3279,-21.484375
3280,-23.437500
3281,-23.437500
3282,-21.484375
3283,-21.484375
3284,-21.484375
3285,-19.531250
3286,-17.578125
3287,-17.578125
3288,-23.437500
3289,-17.578125
3290,-23.437500
3291,-19.531250
3292,-21.484375
3293,-23.437500
3294,-19.531250
3295,-25.390625
3296,-19.531250
3297,-23.437500
3298,-21.484375
3299,-19.531250
3300,-25.390625
3301,-19.531250
3302,-23.437500
3303,-23.437500
3304,-21.484375
3305,-23.437500
3306,-21.484375
3307,-21.484375
3308,-19.531250
3309,-17.578125
3310,-25.390625
3311,-19.531250
3312,-21.484375
3313,-19.531250
3314,-19.531250
3315,-19.531250
3316,-23.437500
3317,-19.531250
3318,-23.437500
3319,-21.484375
3320,-23.437500
3321,-23.437500
3322,-23.437500
3323,-19.531250
3324,-23.437500
3325,-21.484375
3326,-21.484375
3327,-19.531250
3328,-19.531250
3329,-21.484375
3330,-19.531250
3331,-15.625000
3332,-21.484375
3333,-19.531250
3334,-19.531250
3335,-19.531250
3336,-19.531250
3337,-19.531250
3338,-19.531250
3339,-19.531250
3340,-17.578125
3341,-21.484375
3342,-19.531250
3343,-17.578125
3344,-17.578125
3345,-19.531250
3346,-17.578125
3347,-17.578125
3348,-19.531250
3349,-19.531250
3350,-17.578125
3351,-17.578125
3352,-17.578125
3353,-17.578125
3354,-17.578125
3355,-9.765625
3356,-17.578125
3357,-17.578125
3358,-15.625000
3359,-17.578125
3360,-13.671875
3361,-17.578125
3362,-15.625000
3363,-17.578125
3364,-19.531250
3365,-13.671875
3366,-17.578125
3367,-17.578125
3368,-17.578125
3369,-17.578125
3370,-13.671875
3371,-17.578125
3372,-15.625000
3373,-17.578125
3374,-19.531250
3375,-17.578125
3376,-17.578125
3377,-19.531250
3378,-17.578125
3379,-23.437500
3380,-17.578125
3381,-17.578125
3382,-1.953125
3383,-13.671875
3384,-1.953125
3385,-17.578125
3386,-19.531250
3387,-21.484375
3388,-19.531250
3389,-21.484375
3390,-17.578125
3391,-21.484375
3392,-21.484375
3393,-19.531250
3394,-21.484375
3395,-17.578125
3396,-23.437500
3397,-19.531250
3398,-21.484375
3399,-25.390625
3400,-19.531250
3401,-23.437500
3402,-21.484375
3403,-23.437500
3404,-23.437500
3405,-23.437500
3406,-23.437500
3407,-25.390625
3408,-25.390625
3409,-25.390625
3410,-23.437500
3411,-23.437500
3412,-25.390625
3413,-23.437500
3414,-25.390625
3415,-23.437500
3416,-25.390625
3417,-25.390625
3418,-21.484375
3419,-25.390625
3420,-25.390625
3421,-25.390625
3422,-23.437500
3423,-25.390625
3424,-23.437500
3425,-23.437500
3426,-21.484375
3427,-25.390625
3428,-23.437500
3429,-23.437500
3430,-23.437500
3431,-19.531250
3432,-25.390625
3433,-25.390625
3434,-25.390625
3435,-25.390625
3436,-23.437500
3437,-25.390625
3438,-25.390625
3439,-23.437500
3440,-23.437500
3441,-23.437500
3442,-23.437500
3443,-23.437500
3444,-23.437500
3445,-23.437500
3446,-23.437500
3447,-19.531250
3448,-21.484375
3449,-25.390625
3450,-23.437500
3451,-19.531250
3452,-21.484375
3453,-19.531250
3454,-23.437500
3455,-27.343750
3456,-23.437500
3457,-23.437500
3458,-17.578125
3459,-21.484375
3460,-23.437500
3461,-19.531250
3462,-23.437500
3463,-19.531250
3464,-23.437500
3465,-23.437500
3466,-23.437500
3467,-33.203125
3468,-25.390625
3469,-21.484375
3470,-21.484375
3471,-23.437500
3472,-21.484375
3473,-21.484375
3474,-17.578125
3475,-21.484375
3476,-19.531250
3477,-21.484375
3478,-21.484375
3479,-21.484375
3480,-25.390625
3481,-19.531250
3482,-21.484375
3483,-25.390625
3484,-21.484375
3485,-23.437500
3486,-23.437500
3487,-29.296875
3488,-29.296875
3489,-29.296875
3490,-33.203125
3491,-31.250000
3492,-33.203125
3493,-33.203125
3494,-33.203125
3495,-35.156250
3496,-39.062500
3497,-37.109375
3498,-39.062500
3499,-44.921875
3500,-41.015625
3501,-42.968750
3502,-41.015625
3503,-44.921875
3504,-44.921875
3505,-46.875000
3506,-44.921875
3507,-44.921875
3508,-44.921875
3509,-44.921875
3510,-46.875000
3511,-48.828125
3512,-48.828125
3513,-46.875000
3514,-48.828125
3515,-50.781250
3516,-48.828125
3517,-48.828125
3518,-48.828125
3519,-48.828125
3520,-50.781250
3521,-50.781250
3522,-48.828125
3523,-50.781250
3524,-48.828125
3525,-48.828125
3526,-50.781250
3527,-48.828125
3528,-48.828125
3529,-44.921875
3530,-48.828125
3531,-50.781250
3532,-44.921875
3533,-44.921875
3534,-46.875000
3535,-44.921875
3536,-44.921875
3537,-44.921875
3538,-42.968750
3539,-42.968750
3540,-41.015625
3541,-41.015625
3542,-44.921875
3543,-37.109375
3544,-39.062500
3545,-41.015625
3546,-33.203125
3547,-41.015625
3548,-35.156250
3549,-41.015625
3550,-35.156250
3551,-33.203125
3552,-17.578125
3553,-31.250000
3554,-35.156250
3555,-15.625000
3556,-33.203125
3557,-35.156250
3558,-33.203125
3559,-33.203125
3560,-33.203125
3561,-33.203125
3562,-31.250000
3563,-33.203125
3564,-29.296875
3565,-33.203125
3566,-31.250000
3567,-29.296875
3568,-29.296875
3569,-29.296875
3570,-31.250000
3571,-29.296875
3572,-29.296875
3573,-31.250000
3574,-31.250000
3575,-31.250000
3576,-23.437500
3577,-29.296875
3578,-29.296875
3579,-29.296875
3580,-31.250000
3581,-29.296875
3582,-31.250000
3583,-31.250000
3584,-31.250000
3585,-25.390625
3586,-33.203125
3587,-33.203125
3588,-35.156250
3589,-35.156250
3590,-35.156250
3591,-37.109375
3592,-39.062500
3593,-39.062500
3594,-33.203125
3595,-44.921875
3596,-41.015625
3597,-41.015625
3598,-41.015625
3599,-41.015625
3600,-44.921875
3601,-42.968750
3602,-44.921875
3603,-44.921875
3604,-44.921875
3605,-46.875000
3606,-44.921875
3607,-48.828125
3608,-44.921875
3609,-44.921875
3610,-44.921875
3611,-46.875000
3612,-48.828125
3613,-44.921875
3614,-46.875000
3615,-48.828125
3616,-44.921875
3617,-46.875000
3618,-46.875000
3619,-46.875000
3620,-48.828125
3621,-46.875000
3622,-46.875000
3623,-50.781250
3624,-44.921875
3625,-50.781250
3626,-46.875000
3627,-46.875000
3628,-50.781250
3629,-44.921875
3630,-48.828125
3631,-46.875000
3632,-44.921875
3633,-46.875000
3634,-46.875000
3635,-46.875000
3636,-44.921875
3637,-44.921875
3638,-44.921875
3639,-44.921875
3640,-44.921875
3641,-42.968750
3642,-44.921875
3643,-44.921875
3644,-41.015625
3645,-37.109375
3646,-41.015625
3647,-39.062500
3648,-41.015625
3649,-35.156250
3650,-39.062500
3651,-37.109375
3652,-35.156250
3653,-35.156250
3654,-33.203125
3655,-35.156250
3656,-33.203125
3657,-33.203125
3658,-33.203125
3659,-33.203125
3660,-33.203125
3661,-29.296875
3662,-31.250000
3663,-33.203125
3664,-29.296875
3665,-29.296875
3666,-29.296875
3667,-31.250000
3668,-31.250000
3669,-29.296875
3670,-29.296875
3671,-29.296875
3672,-29.296875
3673,-31.250000
3674,-29.296875
3675,-29.296875
3676,-25.390625
3677,-29.296875
3678,-29.296875
3679,-29.296875
3680,-29.296875
3681,-29.296875
3682,-25.390625
3683,-29.296875
3684,-25.390625
3685,-27.343750
3686,-31.250000
3687,-27.343750
3688,-31.250000
3689,-29.296875
3690,-29.296875
3691,-29.296875
3692,-29.296875
3693,-33.203125
3694,-33.203125
3695,-33.203125
3696,-33.203125
3697,-29.296875
3698,-33.203125
3699,-33.203125
3700,-33.203125
3701,-35.156250
3702,-33.203125
3703,-35.156250
3704,-37.109375
3705,-35.156250
3706,-37.109375
3707,-37.109375
3708,-41.015625
3709,-37.109375
3710,-39.062500
3711,-41.015625
3712,-33.203125
3713,-41.015625
3714,-41.015625
3715,-41.015625
3716,-41.015625
3717,-41.015625
3718,-41.015625
3719,-41.015625
3720,-41.015625
3721,-42.968750
3722,-44.921875
3723,-41.015625
3724,-44.921875
3725,-41.015625
3726,-46.875000
3727,-42.968750
3728,-44.921875
3729,-42.968750
3730,-41.015625
3731,-42.968750
3732,-44.921875
3733,-42.968750
3734,-42.968750
3735,-41.015625
3736,-44.921875
3737,-42.968750
3738,-41.015625
3739,-44.921875
3740,-42.968750
3741,-41.015625
3742,-44.921875
3743,-41.015625
3744,-44.921875
3745,-44.921875
3746,-44.921875
3747,-44.921875
3748,-41.015625
3749,-42.968750
3750,-48.828125
3751,-44.921875
3752,-44.921875
3753,-41.015625
3754,-44.921875
3755,-44.921875
3756,-44.921875
3757,-44.921875
3758,-41.015625
3759,-44.921875
3760,-44.921875
3761,-44.921875
3762,-44.921875
3763,-44.921875
3764,-46.875000
3765,-46.875000
3766,-41.015625
3767,-44.921875
3768,-44.921875
3769,-44.921875
3770,-44.921875
3771,-44.921875
3772,-44.921875
3773,-48.828125
3774,-42.968750
3775,-44.921875
3776,-46.875000
3777,-44.921875
3778,-48.828125
3779,-44.921875
3780,-44.921875
3781,-44.921875
3782,-46.875000
3783,-46.875000
3784,-44.921875
3785,-46.875000
3786,-44.921875
3787,-46.875000
3788,-44.921875
3789,-48.828125
3790,-44.921875
3791,-41.015625
3792,-46.875000
3793,-44.921875
3794,-44.921875
3795,-44.921875
3796,-44.921875
3797,-46.875000
3798,-44.921875
3799,-46.875000
3800,-41.015625
3801,-44.921875
3802,-44.921875
3803,-44.921875
3804,-48.828125
3805,-44.921875
3806,-46.875000
3807,-46.875000
3808,-44.921875
3809,-48.828125
3810,-46.875000
3811,-44.921875
3812,-44.921875
3813,-46.875000
3814,-44.921875
3815,-44.921875
3816,-44.921875
3817,-48.828125
3818,-44.921875
3819,-44.921875
3820,-44.921875
3821,-44.921875
3822,-44.921875
3823,-44.921875
3824,-44.921875
3825,-44.921875
3826,-44.921875
3827,-41.015625
3828,-44.921875
3829,-44.921875
3830,-46.875000
3831,-44.921875
3832,-44.921875
3833,-48.828125
3834,-44.921875
3835,-44.921875
3836,-44.921875
3837,-44.921875
3838,-46.875000
3839,-44.921875
3840,-46.875000
3841,-46.875000
3842,-44.921875
3843,-46.875000
3844,-44.921875
3845,-44.921875
3846,-68.359375
3847,-44.921875
3848,-46.875000
3849,-46.875000
3850,-46.875000
3851,-46.875000
3852,-44.921875
3853,-44.921875
3854,-46.875000
3855,-44.921875
3856,-46.875000
3857,-46.875000
3858,-48.828125
3859,-46.875000
3860,-46.875000
3861,-48.828125
3862,-46.875000
3863,-48.828125
3864,-48.828125
3865,-48.828125
3866,-48.828125
3867,-50.781250
3868,-48.828125
3869,-50.781250
3870,-46.875000
3871,-50.781250
3872,-54.687500
3873,-50.781250
3874,-50.781250
3875,-50.781250
3876,-54.687500
3877,-48.828125
3878,-48.828125
3879,-52.734375
3880,-48.828125
3881,-50.781250
3882,-50.781250
3883,-50.781250
3884,-50.781250
3885,-52.734375
3886,-54.687500
3887,-50.781250
3888,-52.734375
3889,-44.921875
3890,-54.687500
3891,-52.734375
3892,-52.734375
3893,-56.640625
3894,-54.687500
3895,-54.687500
3896,-54.687500
3897,-52.734375
3898,-54.687500
3899,-54.687500
3900,-52.734375
3901,-54.687500
3902,-54.687500
3903,-54.687500
3904,-56.640625
3905,-52.734375
3906,-56.640625
3907,-54.687500
3908,-54.687500
3909,-56.640625
3910,-54.687500
3911,-60.546875
3912,-52.734375
3913,-56.640625
3914,-56.640625
3915,-52.734375
3916,-56.640625
3917,-50.781250
3918,-56.640625
3919,-56.640625
3920,-54.687500
3921,-58.593750
3922,-54.687500
3923,-52.734375
3924,-56.640625
3925,-52.734375
3926,-56.640625
3927,-56.640625
3928,-56.640625
3929,-56.640625
3930,-56.640625
3931,-56.640625
3932,-56.640625
3933,-54.687500
3934,-56.640625
3935,-52.734375
3936,-56.640625
3937,-56.640625
3938,-54.687500
3939,-56.640625
3940,-54.687500
3941,-56.640625
3942,-50.781250
3943,-54.687500
3944,-52.734375
3945,-50.781250
3946,-48.828125
3947,-52.734375
3948,-52.734375
3949,-48.828125
3950,-48.828125
3951,-48.828125
3952,-50.781250
3953,-48.828125
3954,-48.828125
3955,-44.921875
3956,-46.875000
3957,-46.875000
3958,-44.921875
3959,-44.921875
3960,-41.015625
3961,-42.968750
3962,-44.921875
3963,-39.062500
3964,-39.062500
3965,-35.156250
3966,-35.156250
3967,-33.203125
3968,-33.203125
3969,-33.203125
3970,-31.250000
3971,-33.203125
3972,-29.296875
3973,-29.296875
3974,-29.296875
3975,-27.343750
3976,-31.250000
3977,-25.390625
3978,-29.296875
3979,-25.390625
3980,-19.531250
3981,-25.390625
3982,-23.437500
3983,-23.437500
3984,-25.390625
3985,-23.437500
3986,-25.390625
3987,-23.437500
3988,-23.437500
3989,-21.484375
3990,-19.531250
3991,-21.484375
3992,-23.437500
3993,-21.484375
3994,-23.437500
3995,-21.484375
3996,-23.437500
3997,-23.437500
3998,-29.296875
3999,-23.437500
4000,-21.484375
4001,-25.390625
4002,-23.437500
4003,-23.437500
4004,-29.296875
4005,-25.390625
4006,-33.203125
4007,-29.296875
4008,-33.203125
4009,-33.203125
4010,-33.203125
4011,-37.109375
4012,-39.062500
4013,-39.062500
4014,-39.062500
4015,-41.015625
4016,-33.203125
4017,-42.968750
4018,-41.015625
4019,-44.921875
4020,-41.015625
4021,-44.921875
4022,-44.921875
4023,-46.875000
4024,-50.781250
4025,-44.921875
4026,-50.781250
4027,-48.828125
4028,-44.921875
4029,-52.734375
4030,-48.828125
4031,-48.828125
4032,-48.828125
4033,-50.781250
4034,-52.734375
4035,-50.781250
4036,-50.781250
4037,-48.828125
4038,-52.734375
4039,-52.734375
4040,-52.734375
4041,-52.734375
4042,-50.781250
4043,-52.734375
4044,-48.828125
4045,-48.828125
4046,-50.781250
4047,-50.781250
4048,-48.828125
4049,-46.875000
4050,-44.921875
4051,-44.921875
4052,-41.015625
4053,-41.015625
4054,-41.015625
4055,-39.062500
4056,-39.062500
4057,-33.203125
4058,-37.109375
4059,-33.203125
4060,-31.250000
4061,-33.203125
4062,-33.203125
4063,-29.296875
4064,-29.296875
4065,-29.296875
4066,-31.250000
4067,-23.437500
4068,-23.437500
4069,-25.390625
4070,-25.390625
4071,-25.390625
4072,-25.390625
4073,-21.484375
4074,-17.578125
4075,-17.578125
4076,-19.531250
4077,-23.437500
4078,-19.531250
4079,-19.531250
4080,-21.484375
4081,-23.437500
4082,-23.437500
4083,-21.484375
4084,-21.484375
4085,-23.437500
4086,-19.531250
4087,-21.484375
4088,-19.531250
4089,-19.531250
4090,-21.484375
4091,-21.484375
4092,-23.437500
4093,-17.578125
4094,-17.578125
4095,-19.531250
4096,-15.625000
4097,-19.531250
4098,-19.531250
4099,-19.531250
4100,-19.531250
4101,-19.531250
4102,-21.484375
4103,-17.578125
4104,-21.484375
4105,-19.531250
4106,-19.531250
4107,-21.484375
4108,-21.484375
4109,-21.484375
4110,-17.578125
4111,-19.531250
4112,-21.484375
4113,-19.531250
4114,-21.484375
4115,-23.437500
4116,-7.812500
4117,-23.437500
4118,-21.484375
4119,-19.531250
4120,-25.390625
4121,-19.531250
4122,-23.437500
4123,-23.437500
4124,-21.484375
4125,-19.531250
4126,-23.437500
4127,-25.390625
4128,-25.390625
4129,-23.437500
4130,-23.437500
4131,-25.390625
4132,-25.390625
4133,-27.343750
4134,-23.437500
4135,-23.437500
4136,-29.296875
4137,-23.437500
4138,-25.390625
4139,-25.390625
4140,-25.390625
4141,-25.390625
4142,-23.437500
4143,-25.390625
4144,-23.437500
4145,-25.390625
4146,-23.437500
4147,-25.390625
4148,-25.390625
4149,-25.390625
4150,-25.390625
4151,-25.390625
4152,-25.390625
4153,-25.390625
4154,-23.437500
4155,-23.437500
4156,-21.484375
4157,-29.296875
4158,-23.437500
4159,-23.437500
4160,-23.437500
4161,-21.484375
4162,-19.531250
4163,-21.484375
4164,-19.531250
4165,-21.484375
4166,-19.531250
4167,-19.531250
4168,-23.437500
4169,-17.578125
4170,-23.437500
4171,-19.531250
4172,-17.578125
4173,-19.531250
4174,-17.578125
4175,-19.531250
4176,-19.531250
4177,-19.531250
4178,-19.531250
4179,-15.625000
4180,-19.531250
4181,-17.578125
4182,-17.578125
4183,-19.531250
4184,-15.625000
4185,-17.578125
4186,-17.578125
4187,-17.578125
4188,-17.578125
4189,-17.578125
4190,-15.625000
4191,-17.578125
4192,-17.578125
4193,-17.578125
4194,-17.578125
4195,-17.578125
4196,-15.625000
4197,-19.531250
4198,-17.578125
4199,-15.625000
4200,-21.484375
4201,-17.578125
4202,-23.437500
4203,-21.484375
4204,-15.625000
4205,-19.531250
4206,-17.578125
4207,-17.578125
4208,-17.578125
4209,-15.625000
4210,-17.578125
4211,-13.671875
4212,-19.531250
4213,-17.578125
4214,-15.625000
4215,-15.625000
4216,-17.578125
4217,-15.625000
4218,-17.578125
4219,-15.625000
4220,-17.578125
4221,-17.578125
4222,-17.578125
4223,-17.578125
4224,-13.671875
4225,-17.578125
4226,-17.578125
4227,-15.625000
4228,-19.531250
4229,-17.578125
4230,-17.578125
4231,-17.578125
4232,-17.578125
4233,-21.484375
4234,-19.531250
4235,-21.484375
4236,-21.484375
4237,-21.484375
4238,-23.437500
4239,-19.531250
4240,-25.390625
4241,-21.484375
4242,-23.437500
4243,-21.484375
4244,-19.531250
4245,-25.390625
4246,-21.484375
4247,-23.437500
4248,-23.437500
4249,-23.437500
4250,-25.390625
4251,-23.437500
4252,-25.390625
4253,-25.390625
4254,-23.437500
4255,-25.390625
4256,-25.390625
4257,-25.390625
4258,-29.296875
4259,-23.437500
4260,-29.296875
4261,-37.109375
4262,-25.390625
4263,-25.390625
4264,-25.390625
4265,-31.250000
4266,-23.437500
4267,-25.390625
4268,-25.390625
4269,-23.437500
4270,-25.390625
4271,-25.390625
4272,-25.390625
4273,-25.390625
4274,-23.437500
4275,-29.296875
4276,-25.390625
4277,-23.437500
4278,-25.390625
4279,-29.296875
4280,-25.390625
4281,-25.390625
4282,-25.390625
4283,-25.390625
4284,-21.484375
4285,-27.343750
4286,-25.390625
4287,-29.296875
4288,-25.390625
4289,-29.296875
4290,-23.437500
4291,-25.390625
4292,-25.390625
4293,-25.390625
4294,-29.296875
4295,-25.390625
4296,-29.296875
4297,-29.296875
4298,-23.437500
4299,-29.296875
4300,-25.390625
4301,-27.343750
4302,-33.203125
4303,-27.343750
4304,-29.296875
4305,-25.390625
4306,-29.296875
4307,-29.296875
4308,-25.390625
4309,-29.296875
4310,-29.296875
4311,-21.484375
4312,-29.296875
4313,-25.390625
4314,-29.296875
4315,-29.296875
4316,-31.250000
4317,-29.296875
4318,-29.296875
4319,-29.296875
4320,-31.250000
4321,-27.343750
4322,-29.296875
4323,-29.296875
4324,-25.390625
4325,-25.390625
4326,-25.390625
4327,-29.296875
4328,-25.390625
4329,-27.343750
4330,-29.296875
4331,-29.296875
4332,-29.296875
4333,-27.343750
4334,-25.390625
4335,-25.390625
4336,-25.390625
4337,-27.343750
4338,-25.390625
4339,-31.250000
4340,-29.296875
4341,-25.390625
4342,-29.296875
4343,-25.390625
4344,-25.390625
4345,-25.390625
4346,-29.296875
4347,-27.343750
4348,-25.390625
4349,-29.296875
4350,-25.390625
4351,-27.343750
4352,-27.343750
4353,-27.343750
4354,-29.296875
4355,-25.390625
4356,-29.296875
4357,-29.296875
4358,-25.390625
4359,-29.296875
4360,-29.296875
4361,-25.390625
4362,-25.390625
4363,-23.437500
4364,-25.390625
4365,-27.343750
4366,-23.437500
4367,-29.296875
4368,-29.296875
4369,-17.578125
4370,-27.343750
4371,-27.343750
4372,-29.296875
4373,-25.390625
4374,-25.390625
4375,-29.296875
4376,-25.390625
4377,-25.390625
4378,-25.390625
4379,-25.390625
4380,-25.390625
4381,-23.437500
4382,-25.390625
4383,-25.390625
4384,-21.484375
4385,-27.343750
4386,-23.437500
4387,-25.390625
4388,-25.390625
4389,-25.390625
4390,-25.390625
4391,-25.390625
4392,-25.390625
4393,-25.390625
4394,-25.390625
4395,-29.296875
4396,-25.390625
4397,-31.250000
4398,-29.296875
4399,-25.390625
4400,-25.390625
4401,-25.390625
4402,-29.296875
4403,-25.390625
4404,-29.296875
4405,-29.296875
4406,-17.578125
4407,-29.296875
4408,-29.296875
4409,-25.390625
4410,-29.296875
4411,-25.390625
4412,-25.390625
4413,-29.296875
4414,-25.390625
4415,-29.296875
4416,-25.390625
4417,-27.343750
4418,-27.343750
4419,-25.390625
4420,-29.296875
4421,-25.390625
4422,-25.390625
4423,-29.296875
4424,-31.250000
4425,-31.250000
4426,-29.296875
4427,-29.296875
4428,-29.296875
4429,-29.296875
4430,-29.296875
4431,-27.343750
4432,-29.296875
4433,-29.296875
4434,-25.390625
4435,-29.296875
4436,-31.250000
4437,-29.296875
4438,-31.250000
4439,-29.296875
4440,-31.250000
4441,-29.296875
4442,-29.296875
4443,-29.296875
4444,-29.296875
4445,-33.203125
4446,-29.296875
4447,-31.250000
4448,-31.250000
4449,-29.296875
4450,-31.250000
4451,-29.296875
4452,-29.296875
4453,-29.296875
4454,-27.343750
4455,-31.250000
4456,-29.296875
4457,-29.296875
4458,-25.390625
4459,-25.390625
4460,-29.296875
4461,-29.296875
4462,-25.390625
4463,-25.390625
4464,-25.390625
4465,-25.390625
4466,-29.296875
4467,-25.390625
4468,-29.296875
4469,-25.390625
4470,-33.203125
4471,-27.343750
4472,-25.390625
4473,-29.296875
4474,-23.437500
4475,-23.437500
4476,-25.390625
4477,-23.437500
4478,-25.390625
4479,-25.390625
4480,-23.437500
4481,-25.390625
4482,-25.390625
4483,-25.390625
4484,-25.390625
4485,-25.390625
4486,-25.390625
4487,-25.390625
4488,-25.390625
4489,-25.390625
4490,-25.390625
4491,-25.390625
4492,-25.390625
4493,-25.390625
4494,-23.437500
4495,-23.437500
4496,-23.437500
4497,-21.484375
4498,-25.390625
4499,-23.437500
4500,-25.390625
4501,-25.390625
4502,-25.390625
4503,-25.390625
4504,-25.390625
4505,-29.296875
4506,-29.296875
4507,-29.296875
4508,-33.203125
4509,-33.203125
4510,-35.156250
4511,-35.156250
4512,-35.156250
4513,-39.062500
4514,-37.109375
4515,-41.015625
4516,-41.015625
4517,-41.015625
4518,-44.921875
4519,-41.015625
4520,-44.921875
4521,-46.875000
4522,-44.921875
4523,-44.921875
4524,-54.687500
4525,-44.921875
4526,-50.781250
4527,-48.828125
4528,-48.828125
4529,-48.828125
4530,-48.828125
4531,-48.828125
4532,-48.828125
4533,-48.828125
4534,-48.828125
4535,-48.828125
4536,-50.781250
4537,-48.828125
4538,-52.734375
4539,-48.828125
4540,-54.687500
4541,-50.781250
4542,-50.781250
4543,-48.828125
4544,-48.828125
4545,-54.687500
4546,-50.781250
4547,-54.687500
4548,-52.734375
4549,-48.828125
4550,-54.687500
4551,-48.828125
4552,-50.781250
4553,-54.687500
4554,-48.828125
4555,-52.734375
4556,-46.875000
4557,-48.828125
4558,-48.828125
4559,-44.921875
4560,-48.828125
4561,-46.875000
4562,-44.921875
4563,-44.921875
4564,-44.921875
4565,-41.015625
4566,-44.921875
4567,-44.921875
4568,-41.015625
4569,-41.015625
4570,-39.062500
4571,-41.015625
4572,-41.015625
4573,-41.015625
4574,-41.015625
4575,-39.062500
4576,-41.015625
4577,-39.062500
4578,-41.015625
4579,-41.015625
4580,-37.109375
4581,-39.062500
4582,-39.062500
4583,-37.109375
4584,-39.062500
4585,-37.109375
4586,-41.015625
4587,-39.062500
4588,-35.156250
4589,-41.015625
4590,-41.015625
4591,-41.015625
4592,-41.015625
4593,-41.015625
4594,-42.968750
4595,-41.015625
4596,-42.968750
4597,-41.015625
4598,-44.921875
4599,-46.875000
4600,-44.921875
4601,-48.828125
4602,-46.875000
4603,-44.921875
4604,-50.781250
4605,-46.875000
4606,-50.781250
4607,-48.828125
4608,-48.828125
4609,-48.828125
4610,-46.875000
4611,-48.828125
4612,-48.828125
4613,-48.828125
4614,-50.781250
4615,-48.828125
4616,-48.828125
4617,-48.828125
4618,-48.828125
4619,-48.828125
4620,-50.781250
4621,-48.828125
4622,-50.781250
4623,-48.828125
4624,-50.781250
4625,-48.828125
4626,-48.828125
4627,-48.828125
4628,-48.828125
4629,-52.734375
4630,-50.781250
4631,-48.828125
4632,-50.781250
4633,-50.781250
4634,-50.781250
4635,-48.828125
4636,-48.828125
4637,-50.781250
4638,-54.687500
4639,-48.828125
4640,-50.781250
4641,-48.828125
4642,-44.921875
4643,-48.828125
4644,-50.781250
4645,-50.781250
4646,-46.875000
4647,-48.828125
4648,-44.921875
4649,-46.875000
4650,-46.875000
4651,-44.921875
4652,-52.734375
4653,-44.921875
4654,-44.921875
4655,-44.921875
4656,-44.921875
4657,-46.875000
4658,-42.968750
4659,-46.875000
4660,-44.921875
4661,-44.921875
4662,-41.015625
4663,-41.015625
4664,-41.015625
4665,-44.921875
4666,-44.921875
4667,-44.921875
4668,-44.921875
4669,-44.921875
4670,-44.921875
4671,-41.015625
4672,-44.921875
4673,-41.015625
4674,-44.921875
4675,-44.921875
4676,-41.015625
4677,-48.828125
4678,-44.921875
4679,-46.875000
4680,-46.875000
4681,-44.921875
4682,-48.828125
4683,-44.921875
4684,-48.828125
4685,-48.828125
4686,-44.921875
4687,-50.781250
4688,-50.781250
4689,-48.828125
4690,-50.781250
4691,-50.781250
4692,-56.640625
4693,-50.781250
4694,-48.828125
4695,-48.828125
4696,-50.781250
4697,-54.687500
4698,-50.781250
4699,-52.734375
4700,-50.781250
4701,-37.109375
4702,-54.687500
4703,-48.828125
4704,-50.781250
4705,-50.781250
4706,-54.687500
4707,-50.781250
4708,-50.781250
4709,-50.781250
4710,-50.781250
4711,-52.734375
4712,-52.734375
4713,-48.828125
4714,-52.734375
4715,-50.781250
4716,-50.781250
4717,-54.687500
4718,-50.781250
4719,-48.828125
4720,-50.781250
4721,-50.781250
4722,-58.593750
4723,-48.828125
4724,-56.640625
4725,-50.781250
4726,-50.781250
4727,-48.828125
4728,-48.828125
4729,-48.828125
4730,-52.734375
4731,-48.828125
4732,-48.828125
4733,-48.828125
4734,-48.828125
4735,-54.687500
4736,-48.828125
4737,-54.687500
4738,-50.781250
4739,-50.781250
4740,-50.781250
4741,-50.781250
4742,-52.734375
4743,-48.828125
4744,-54.687500
4745,-54.687500
4746,-50.781250
4747,-54.687500
4748,-48.828125
4749,-50.781250
4750,-50.781250
4751,-54.687500
4752,-52.734375
4753,-46.875000
4754,-48.828125
4755,-48.828125
4756,-48.828125
4757,-52.734375
4758,-46.875000
4759,-44.921875
4760,-48.828125
4761,-44.921875
4762,-46.875000
4763,-44.921875
4764,-44.921875
4765,-46.875000
4766,-42.968750
4767,-44.921875
4768,-44.921875
4769,-46.875000
4770,-41.015625
4771,-37.109375
4772,-44.921875
4773,-41.015625
4774,-39.062500
4775,-41.015625
4776,-41.015625
4777,-41.015625
4778,-39.062500
4779,-41.015625
4780,-41.015625
4781,-37.109375
4782,-39.062500
4783,-41.015625
4784,-39.062500
4785,-41.015625
4786,-37.109375
4787,-39.062500
4788,-37.109375
4789,-39.062500
4790,-33.203125
4791,-37.109375
4792,-41.015625
4793,-33.203125
4794,-37.109375
4795,-35.156250
4796,-35.156250
4797,-37.109375
4798,-35.156250
4799,-37.109375
4800,-35.156250
4801,-37.109375
4802,-37.109375
4803,-33.203125
4804,-39.062500
4805,-35.156250
4806,-37.109375
4807,-37.109375
4808,-33.203125
4809,-37.109375
4810,-37.109375
4811,-37.109375
4812,-37.109375
4813,-39.062500
4814,-37.109375
4815,-35.156250
4816,-35.156250
4817,-35.156250
4818,-39.062500
4819,-37.109375
4820,-39.062500
4821,-35.156250
4822,-35.156250
4823,-37.109375
4824,-33.203125
4825,-39.062500
4826,-35.156250
4827,-35.156250
4828,-37.109375
4829,-35.156250
4830,-39.062500
4831,-37.109375
4832,-37.109375
4833,-37.109375
4834,-35.156250
4835,-39.062500
4836,-37.109375
4837,-35.156250
4838,-41.015625
4839,-37.109375
4840,-39.062500
4841,-37.109375
4842,-39.062500
4843,-39.062500
4844,-41.015625
4845,-41.015625
4846,-50.781250
4847,-41.015625
4848,-41.015625
4849,-41.015625
4850,-41.015625
4851,-41.015625
4852,-41.015625
4853,-41.015625
4854,-41.015625
4855,-44.921875
4856,-41.015625
4857,-42.968750
4858,-42.968750
4859,-42.968750
4860,-48.828125
4861,-41.015625
4862,-44.921875
4863,-42.968750
4864,-44.921875
4865,-41.015625
4866,-41.015625
4867,-44.921875
4868,-44.921875
4869,-44.921875
4870,-44.921875
4871,-44.921875
4872,-46.875000
4873,-46.875000
4874,-48.828125
4875,-46.875000
4876,-44.921875
4877,-44.921875
4878,-44.921875
4879,-44.921875
4880,-44.921875
4881,-44.921875
4882,-46.875000
4883,-41.015625
4884,-44.921875
4885,-46.875000
4886,-44.921875
4887,-46.875000
4888,-44.921875
4889,-44.921875
4890,-46.875000
4891,-44.921875
4892,-48.828125
4893,-44.921875
4894,-46.875000
4895,-44.921875
4896,-31.250000
4897,-48.828125
4898,-44.921875
4899,-46.875000
4900,-46.875000
4901,-44.921875
4902,-46.875000
4903,-44.921875
4904,-44.921875
4905,-46.875000
4906,-48.828125
4907,-46.875000
4908,-44.921875
4909,-46.875000
4910,-46.875000
4911,-46.875000
4912,-52.734375
4913,-44.921875
4914,-46.875000
4915,-46.875000
4916,-46.875000
4917,-46.875000
4918,-44.921875
4919,-44.921875
4920,-44.921875
4921,-46.875000
4922,-44.921875
4923,-44.921875
4924,-46.875000
4925,-46.875000
4926,-46.875000
4927,-46.875000
4928,-44.921875
4929,-44.921875
4930,-46.875000
4931,-46.875000
4932,-44.921875
4933,-44.921875
4934,-48.828125
4935,-44.921875
4936,-44.921875
4937,-46.875000
4938,-44.921875
4939,-46.875000
4940,-44.921875
4941,-44.921875
4942,-48.828125
4943,-44.921875
4944,-46.875000
4945,-41.015625
4946,-33.203125
4947,-46.875000
4948,-46.875000
4949,-46.875000
4950,-44.921875
4951,-42.968750
4952,-44.921875
4953,-44.921875
4954,-44.921875
4955,-46.875000
4956,-46.875000
4957,-46.875000
4958,-46.875000
4959,-46.875000
4960,-44.921875
4961,-44.921875
4962,-48.828125
4963,-44.921875
4964,-48.828125
4965,-48.828125
4966,-44.921875
4967,-48.828125
4968,-44.921875
4969,-48.828125
4970,-48.828125
4971,-48.828125
4972,-48.828125
4973,-46.875000
4974,-44.921875
4975,-46.875000
4976,-44.921875
4977,-44.921875
4978,-44.921875
4979,-44.921875
4980,-44.921875
4981,-44.921875
4982,-44.921875
4983,-44.921875
4984,-44.921875
4985,-44.921875
4986,-41.015625
4987,-41.015625
4988,-44.921875
4989,-42.968750
4990,-41.015625
4991,-41.015625
4992,-44.921875
4993,-35.156250
4994,-41.015625
4995,-42.968750
4996,-41.015625
4997,-41.015625
4998,-37.109375
4999,-39.062500
5000,-39.062500
5001,-39.062500
5002,-41.015625
5003,-37.109375
5004,-39.062500
5005,-41.015625
5006,-39.062500
5007,-39.062500
5008,-33.203125
5009,-37.109375
5010,-35.156250
5011,-35.156250
5012,-37.109375
5013,-37.109375
5014,-35.156250
5015,-35.156250
5016,-35.156250
5017,-37.109375
5018,-35.156250
5019,-37.109375
5020,-35.156250
5021,-35.156250
5022,-37.109375
5023,-35.156250
5024,-37.109375
5025,-39.062500
5026,-37.109375
5027,-39.062500
5028,-35.156250
5029,-39.062500
5030,-39.062500
5031,-39.062500
5032,-39.062500
5033,-39.062500
5034,-39.062500
5035,-39.062500
5036,-39.062500
5037,-39.062500
5038,-48.828125
5039,-41.015625
5040,-39.062500
5041,-41.015625
5042,-42.968750
5043,-41.015625
5044,-44.921875
5045,-44.921875
5046,-44.921875
5047,-44.921875
5048,-41.015625
5049,-46.875000
5050,-44.921875
5051,-48.828125
5052,-46.875000
5053,-50.781250
5054,-48.828125
5055,-48.828125
5056,-52.734375
5057,-48.828125
5058,-50.781250
5059,-52.734375
5060,-48.828125
5061,-54.687500
5062,-52.734375
5063,-52.734375
5064,-56.640625
5065,-56.640625
5066,-52.734375
5067,-56.640625
5068,-52.734375
5069,-52.734375
5070,-56.640625
5071,-54.687500
5072,-54.687500
5073,-56.640625
5074,-56.640625
5075,-56.640625
5076,-52.734375
5077,-56.640625
5078,-56.640625
5079,-54.687500
5080,-58.593750
5081,-54.687500
5082,-54.687500
5083,-56.640625
5084,-54.687500
5085,-56.640625
5086,-56.640625
5087,-56.640625
5088,-54.687500
5089,-56.640625
5090,-56.640625
5091,-54.687500
5092,-54.687500
5093,-56.640625
5094,-56.640625
5095,-60.546875
5096,-60.546875
5097,-56.640625
5098,-56.640625
5099,-54.687500
5100,-56.640625
5101,-56.640625
5102,-56.640625
5103,-54.687500
5104,-52.734375
5105,-56.640625
5106,-48.828125
5107,-52.734375
5108,-48.828125
5109,-44.921875
5110,-46.875000
5111,-41.015625
5112,-44.921875
5113,-44.921875
5114,-39.062500
5115,-41.015625
5116,-35.156250
5117,-37.109375
5118,-35.156250
5119,-33.203125
5120,-33.203125
5121,-33.203125
5122,-31.250000
5123,-31.250000
5124,-29.296875
5125,-29.296875
5126,-35.156250
5127,-25.390625
5128,-29.296875
5129,-25.390625
5130,-25.390625
5131,-25.390625
5132,-25.390625
5133,-27.343750
5134,-17.578125
5135,-25.390625
5136,-25.390625
5137,-21.484375
5138,-25.390625
5139,-21.484375
5140,-25.390625
5141,-23.437500
5142,-23.437500
5143,-27.343750
5144,-25.390625
5145,-23.437500
5146,-25.390625
5147,-25.390625
5148,-25.390625
5149,-29.296875
5150,-29.296875
5151,-25.390625
5152,-25.390625
5153,-29.296875
5154,-25.390625
5155,-29.296875
5156,-29.296875
5157,-25.390625
5158,-29.296875
5159,-25.390625
5160,-29.296875
5161,-29.296875
5162,-29.296875
5163,-33.203125
5164,-29.296875
5165,-31.250000
5166,-31.250000
5167,-31.250000
5168,-33.203125
5169,-31.250000
5170,-33.203125
5171,-33.203125
5172,-33.203125
5173,-35.156250
5174,-33.203125
5175,-33.203125
5176,-33.203125
5177,-33.203125
5178,-35.156250
5179,-23.437500
5180,-35.156250
5181,-37.109375
5182,-33.203125
5183,-37.109375
5184,-35.156250
5185,-33.203125
5186,-35.156250
5187,-33.203125
5188,-35.156250
5189,-33.203125
5190,-33.203125
5191,-33.203125
5192,-33.203125
5193,-33.203125
5194,-33.203125
5195,-29.296875
5196,-33.203125
5197,-33.203125
5198,-33.203125
5199,-31.250000
5200,-29.296875
5201,-29.296875
5202,-29.296875
5203,-29.296875
5204,-29.296875
5205,-25.390625
5206,-31.250000
5207,-25.390625
5208,-29.296875
5209,-23.437500
5210,-25.390625
5211,-25.390625
5212,-23.437500
5213,-25.390625
5214,-25.390625
5215,-23.437500
5216,-25.390625
5217,-23.437500
5218,-41.015625
5219,-23.437500
5220,-23.437500
5221,-23.437500
5222,-25.390625
5223,-25.390625
5224,-23.437500
5225,-23.437500
5226,-25.390625
5227,-23.437500
5228,-23.437500
5229,-25.390625
5230,-21.484375
5231,-23.437500
5232,-19.531250
5233,-23.437500
5234,-25.390625
5235,-21.484375
5236,-25.390625
5237,-23.437500
5238,-23.437500
5239,-27.343750
5240,-25.390625
5241,-33.203125
5242,-25.390625
5243,-25.390625
5244,-29.296875
5245,-25.390625
5246,-29.296875
5247,-29.296875
5248,-25.390625
5249,-29.296875
5250,-29.296875
5251,-31.250000
5252,-31.250000
5253,-29.296875
5254,-31.250000
5255,-31.250000
5256,-31.250000
5257,-31.250000
5258,-29.296875
5259,-33.203125
5260,-29.296875
5261,-31.250000
5262,-31.250000
5263,-29.296875
5264,-31.250000
5265,-29.296875
5266,-31.250000
5267,-29.296875
5268,-29.296875
5269,-25.390625
5270,-25.390625
5271,-29.296875
5272,-29.296875
5273,-29.296875
5274,-29.296875
5275,-27.343750
5276,-25.390625
5277,-29.296875
5278,-25.390625
5279,-27.343750
5280,-25.390625
5281,-25.390625
5282,-25.390625
5283,-23.437500
5284,-25.390625
5285,-23.437500
5286,-19.531250
5287,-25.390625
5288,-23.437500
5289,-23.437500
5290,-19.531250
5291,-27.343750
5292,-17.578125
5293,-21.484375
5294,-21.484375
5295,-29.296875
5296,-21.484375
5297,-17.578125
5298,-19.531250
5299,-19.531250
5300,-21.484375
5301,-21.484375
5302,-17.578125
5303,-21.484375
5304,-17.578125
5305,-17.578125
5306,-21.484375
5307,-15.625000
5308,-17.578125
5309,-21.484375
5310,-19.531250
5311,-19.531250
5312,-17.578125
5313,-1.953125
5314,-21.484375
5315,-17.578125
5316,-15.625000
5317,-17.578125
5318,-15.625000
5319,-17.578125
5320,-17.578125
5321,-17.578125
5322,-19.531250
5323,-17.578125
5324,-17.578125
5325,-19.531250
5326,-17.578125
5327,-17.578125
5328,-21.484375
5329,-17.578125
5330,-21.484375
5331,-19.531250
5332,-19.531250
5333,-19.531250
5334,-19.531250
5335,-23.437500
5336,-17.578125
5337,-23.437500
5338,-23.437500
5339,-21.484375
5340,-23.437500
5341,-21.484375
5342,-23.437500
5343,-23.437500
5344,-23.437500
5345,-25.390625
5346,-25.390625
5347,-25.390625
5348,-25.390625
5349,-23.437500
5350,-25.390625
5351,-25.390625
5352,-27.343750
5353,-27.343750
5354,-23.437500
5355,-27.343750
5356,-25.390625
5357,-29.296875
5358,-25.390625
5359,-25.390625
5360,-29.296875
5361,-25.390625
5362,-25.390625
5363,-25.390625
5364,-25.390625
5365,-27.343750
5366,-25.390625
5367,-25.390625
5368,-25.390625
5369,-25.390625
5370,-25.390625
5371,-27.343750
5372,-39.062500
5373,-27.343750
5374,-25.390625
5375,-25.390625
5376,-25.390625
5377,-21.484375
5378,-29.296875
5379,-25.390625
5380,-25.390625
5381,-25.390625
5382,-21.484375
5383,-25.390625
5384,-23.437500
5385,-25.390625
5386,-25.390625
5387,-23.437500
5388,-25.390625
5389,-23.437500
5390,-25.390625
5391,-23.437500
5392,-23.437500
5393,-23.437500
5394,-23.437500
5395,-25.390625
5396,-23.437500
5397,-21.484375
5398,-23.437500
5399,-23.437500
5400,-21.484375
5401,-23.437500
5402,-23.437500
5403,-25.390625
5404,-23.437500
5405,-23.437500
5406,-21.484375
5407,-21.484375
5408,-23.437500
5409,-21.484375
5410,-25.390625
5411,-25.390625
5412,-21.484375
5413,-25.390625
5414,-21.484375
5415,-23.437500
5416,-25.390625
5417,-21.484375
5418,-23.437500
5419,-19.531250
5420,-23.437500
5421,-23.437500
5422,-29.296875
5423,-25.390625
5424,-21.484375
5425,-21.484375
5426,-23.437500
5427,-23.437500
5428,-25.390625
5429,-23.437500
5430,-21.484375
5431,-33.203125
5432,-21.484375
5433,-23.437500
5434,-23.437500
5435,-21.484375
5436,-23.437500
5437,-19.531250
5438,-23.437500
5439,-23.437500
5440,-23.437500
5441,-23.437500
5442,-21.484375
5443,-23.437500
5444,-21.484375
5445,-19.531250
5446,-23.437500
5447,-23.437500
5448,-23.437500
5449,-21.484375
5450,-23.437500
5451,-25.390625
5452,-21.484375
5453,-23.437500
5454,-23.437500
5455,-23.437500
5456,-25.390625
5457,-23.437500
5458,-21.484375
5459,-25.390625
5460,-25.390625
5461,-25.390625
5462,-23.437500
5463,-25.390625
5464,-25.390625
5465,-25.390625
5466,-25.390625
5467,-23.437500
5468,-25.390625
5469,-25.390625
5470,-25.390625
5471,-25.390625
5472,-29.296875
5473,-27.343750
5474,-25.390625
5475,-25.390625
5476,-29.296875
5477,-25.390625
5478,-25.390625
5479,-25.390625
5480,-25.390625
5481,-25.390625
5482,-25.390625
5483,-25.390625
5484,-29.296875
5485,-25.390625
5486,-25.390625
5487,-25.390625
5488,-25.390625
5489,-29.296875
5490,-21.484375
5491,-29.296875
5492,-25.390625
5493,-27.343750
5494,-29.296875
5495,-25.390625
5496,-29.296875
5497,-29.296875
5498,-29.296875
5499,-31.250000
5500,-29.296875
5501,-31.250000
5502,-29.296875
5503,-29.296875
5504,-29.296875
5505,-29.296875
5506,-33.203125
5507,-31.250000
5508,-33.203125
5509,-33.203125
5510,-33.203125
5511,-35.156250
5512,-33.203125
5513,-33.203125
5514,-35.156250
5515,-33.203125
5516,-37.109375
5517,-35.156250
5518,-37.109375
5519,-35.156250
5520,-35.156250
5521,-35.156250
5522,-33.203125
5523,-35.156250
5524,-37.109375
5525,-35.156250
5526,-37.109375
5527,-35.156250
5528,-35.156250
5529,-41.015625
5530,-39.062500
5531,-46.875000
5532,-37.109375
5533,-35.156250
5534,-39.062500
5535,-37.109375
5536,-37.109375
5537,-39.062500
5538,-39.062500
5539,-37.109375
5540,-35.156250
5541,-39.062500
5542,-37.109375
5543,-37.109375
5544,-37.109375
5545,-37.109375
5546,-39.062500
5547,-33.203125
5548,-39.062500
5549,-35.156250
5550,-35.156250
5551,-39.062500
5552,-33.203125
5553,-37.109375
5554,-37.109375
5555,-35.156250
5556,-35.156250
5557,-35.156250
5558,-33.203125
5559,-35.156250
5560,-35.156250
5561,-35.156250
5562,-33.203125
5563,-33.203125
5564,-37.109375
5565,-33.203125
5566,-33.203125
5567,-35.156250
5568,-33.203125
5569,-33.203125
5570,-33.203125
5571,-31.250000
5572,-31.250000
5573,-31.250000
5574,-31.250000
5575,-27.343750
5576,-29.296875
5577,-29.296875
5578,-25.390625
5579,-29.296875
5580,-29.296875
5581,-25.390625
5582,-25.390625
5583,-27.343750
5584,-25.390625
5585,-25.390625
5586,-23.437500
5587,-25.390625
5588,-25.390625
5589,-25.390625
5590,-27.343750
5591,-23.437500
5592,-25.390625
5593,-25.390625
5594,-25.390625
5595,-29.296875
5596,-25.390625
5597,-25.390625
5598,-25.390625
5599,-25.390625
5600,-25.390625
5601,-25.390625
5602,-25.390625
5603,-29.296875
5604,-29.296875
5605,-33.203125
5606,-25.390625
5607,-29.296875
5608,-31.250000
5609,-25.390625
5610,-31.250000
5611,-25.390625
5612,-33.203125
5613,-33.203125
5614,-35.156250
5615,-37.109375
5616,-35.156250
5617,-41.015625
5618,-37.109375
5619,-39.062500
5620,-42.968750
5621,-46.875000
5622,-44.921875
5623,-46.875000
5624,-44.921875
5625,-48.828125
5626,-56.640625
5627,-44.921875
5628,-48.828125
5629,-44.921875
5630,-52.734375
5631,-48.828125
5632,-46.875000
5633,-54.687500
5634,-50.781250
5635,-54.687500
5636,-48.828125
5637,-52.734375
5638,-54.687500
5639,-50.781250
5640,-52.734375
5641,-54.687500
5642,-52.734375
5643,-54.687500
5644,-54.687500
5645,-54.687500
5646,-54.687500
5647,-50.781250
5648,-54.687500
5649,-54.687500
5650,-52.734375
5651,-56.640625
5652,-52.734375
5653,-56.640625
5654,-52.734375
5655,-54.687500
5656,-56.640625
5657,-50.781250
5658,-56.640625
5659,-56.640625
5660,-54.687500
5661,-56.640625
5662,-50.781250
5663,-50.781250
5664,-48.828125
5665,-48.828125
5666,-52.734375
5667,-56.640625
5668,-48.828125
5669,-50.781250
5670,-46.875000
5671,-46.875000
5672,-44.921875
5673,-46.875000
5674,-44.921875
5675,-44.921875
5676,-46.875000
5677,-41.015625
5678,-44.921875
5679,-41.015625
5680,-39.062500
5681,-41.015625
5682,-42.968750
5683,-39.062500
5684,-33.203125
5685,-39.062500
5686,-39.062500
5687,-41.015625
5688,-39.062500
5689,-41.015625
5690,-39.062500
5691,-44.921875
5692,-41.015625
5693,-41.015625
5694,-41.015625
5695,-39.062500
5696,-41.015625
5697,-41.015625
5698,-41.015625
5699,-48.828125
5700,-44.921875
5701,-46.875000
5702,-44.921875
5703,-44.921875
5704,-48.828125
5705,-44.921875
5706,-50.781250
5707,-48.828125
5708,-46.875000
5709,-48.828125
5710,-48.828125
5711,-48.828125
5712,-48.828125
5713,-50.781250
5714,-48.828125
5715,-48.828125
5716,-48.828125
5717,-48.828125
5718,-46.875000
5719,-50.781250
5720,-48.828125
5721,-50.781250
5722,-50.781250
5723,-48.828125
5724,-48.828125
5725,-48.828125
5726,-54.687500
5727,-52.734375
5728,-44.921875
5729,-46.875000
5730,-48.828125
5731,-46.875000
5732,-48.828125
5733,-48.828125
5734,-46.875000
5735,-46.875000
5736,-46.875000
5737,-48.828125
5738,-48.828125
5739,-48.828125
5740,-50.781250
5741,-46.875000
5742,-48.828125
5743,-44.921875
5744,-46.875000
5745,-48.828125
5746,-39.062500
5747,-48.828125
5748,-46.875000
5749,-50.781250
5750,-48.828125
5751,-48.828125
5752,-48.828125
5753,-48.828125
5754,-48.828125
5755,-48.828125
5756,-48.828125
5757,-50.781250
5758,-50.781250
5759,-48.828125
5760,-50.781250
5761,-46.875000
5762,-48.828125
5763,-46.875000
5764,-44.921875
5765,-48.828125
5766,-41.015625
5767,-46.875000
5768,-44.921875
5769,-44.921875
5770,-46.875000
5771,-44.921875
5772,-44.921875
5773,-44.921875
5774,-42.968750
5775,-44.921875
5776,-41.015625
5777,-41.015625
5778,-44.921875
5779,-41.015625
5780,-44.921875
5781,-41.015625
5782,-41.015625
5783,-44.921875
5784,-41.015625
5785,-41.015625
5786,-41.015625
5787,-41.015625
5788,-41.015625
5789,-41.015625
5790,-46.875000
5791,-41.015625
5792,-44.921875
5793,-44.921875
5794,-41.015625
5795,-44.921875
5796,-41.015625
5797,-44.921875
5798,-42.968750
5799,-44.921875
5800,-46.875000
5801,-44.921875
5802,-50.781250
5803,-41.015625
5804,-48.828125
5805,-46.875000
5806,-44.921875
5807,-50.781250
5808,-52.734375
5809,-50.781250
5810,-48.828125
5811,-44.921875
5812,-48.828125
5813,-48.828125
5814,-48.828125
5815,-50.781250
5816,-50.781250
5817,-46.875000
5818,-48.828125
5819,-48.828125
5820,-48.828125
5821,-48.828125
5822,-48.828125
5823,-48.828125
5824,-46.875000
5825,-48.828125
5826,-48.828125
5827,-48.828125
5828,-48.828125
5829,-48.828125
5830,-48.828125
5831,-50.781250
5832,-46.875000
5833,-48.828125
5834,-48.828125
5835,-48.828125
5836,-46.875000
5837,-44.921875
5838,-48.828125
5839,-48.828125
5840,-46.875000
5841,-52.734375
5842,-46.875000
5843,-48.828125
5844,-44.921875
5845,-48.828125
5846,-46.875000
5847,-48.828125
5848,-50.781250
5849,-48.828125
5850,-48.828125
5851,-48.828125
5852,-48.828125
5853,-54.687500
5854,-48.828125
5855,-50.781250
5856,-48.828125
5857,-48.828125
5858,-48.828125
5859,-46.875000
5860,-50.781250
5861,-50.781250
5862,-48.828125
5863,-50.781250
5864,-48.828125
5865,-48.828125
5866,-48.828125
5867,-48.828125
5868,-44.921875
5869,-52.734375
5870,-48.828125
5871,-54.687500
5872,-48.828125
5873,-48.828125
5874,-48.828125
5875,-48.828125
5876,-52.734375
5877,-46.875000
5878,-48.828125
5879,-46.875000
5880,-48.828125
5881,-54.687500
5882,-48.828125
5883,-48.828125
5884,-48.828125
5885,-50.781250
5886,-46.875000
5887,-48.828125
5888,-48.828125
5889,-48.828125
5890,-48.828125
5891,-54.687500
5892,-48.828125
5893,-50.781250
5894,-54.687500
5895,-48.828125
5896,-52.734375
5897,-48.828125
5898,-48.828125
5899,-50.781250
5900,-50.781250
5901,-54.687500
5902,-48.828125
5903,-54.687500
5904,-48.828125
5905,-44.921875
5906,-50.781250
5907,-48.828125
5908,-52.734375
5909,-50.781250
5910,-52.734375
5911,-52.734375
5912,-41.015625
5913,-50.781250
5914,-54.687500
5915,-50.781250
5916,-54.687500
5917,-52.734375
5918,-54.687500
5919,-52.734375
5920,-50.781250
5921,-54.687500
5922,-52.734375
5923,-52.734375
5924,-52.734375
5925,-48.828125
5926,-56.640625
5927,-50.781250
5928,-50.781250
5929,-50.781250
5930,-50.781250
5931,-50.781250
5932,-50.781250
5933,-48.828125
5934,-48.828125
5935,-48.828125
5936,-33.203125
5937,-50.781250
5938,-48.828125
5939,-54.687500
5940,-48.828125
5941,-52.734375
5942,-52.734375
5943,-48.828125
5944,-54.687500
5945,-50.781250
5946,-52.734375
5947,-52.734375
5948,-50.781250
5949,-54.687500
5950,-48.828125
5951,-54.687500
5952,-56.640625
5953,-50.781250
5954,-56.640625
5955,-50.781250
5956,-52.734375
5957,-54.687500
5958,-52.734375
5959,-52.734375
5960,-52.734375
5961,-54.687500
5962,-56.640625
5963,-50.781250
5964,-52.734375
5965,-50.781250
5966,-52.734375
5967,-54.687500
5968,-50.781250
5969,-54.687500
5970,-50.781250
5971,-46.875000
5972,-52.734375
5973,-48.828125
5974,-54.687500
5975,-52.734375
5976,-50.781250
5977,-56.640625
5978,-48.828125
5979,-52.734375
5980,-48.828125
5981,-50.781250
5982,-52.734375
5983,-50.781250
5984,-54.687500
5985,-52.734375
5986,-48.828125
5987,-50.781250
5988,-50.781250
5989,-52.734375
5990,-54.687500
5991,-48.828125
5992,-52.734375
5993,-48.828125
5994,-54.687500
5995,-52.734375
5996,-52.734375
5997,-54.687500
5998,-48.828125
5999,-54.687500
6000,-50.781250
6001,-52.734375
6002,-54.687500
6003,-48.828125
6004,-52.734375
6005,-48.828125
6006,-54.687500
6007,-50.781250
6008,-48.828125
6009,-54.687500
6010,-48.828125
6011,-54.687500
6012,-52.734375
6013,-54.687500
6014,-50.781250
6015,-52.734375
6016,-48.828125
6017,-50.781250
6018,-50.781250
6019,-50.781250
6020,-50.781250
6021,-46.875000
6022,-54.687500
6023,-54.687500
6024,-50.781250
6025,-52.734375
6026,-52.734375
6027,-52.734375
6028,-48.828125
6029,-52.734375
6030,-50.781250
6031,-50.781250
6032,-54.687500
6033,-48.828125
6034,-52.734375
6035,-52.734375
6036,-48.828125
6037,-52.734375
6038,-48.828125
6039,-48.828125
6040,-48.828125
6041,-52.734375
6042,-48.828125
6043,-48.828125
6044,-54.687500
6045,-48.828125
6046,-54.687500
6047,-48.828125
6048,-62.500000
6049,-52.734375
6050,-48.828125
6051,-54.687500
6052,-58.593750
6053,-48.828125
6054,-52.734375
6055,-48.828125
6056,-50.781250
6057,-48.828125
6058,-48.828125
6059,-52.734375
6060,-48.828125
6061,-54.687500
6062,-50.781250
6063,-52.734375
6064,-50.781250
6065,-48.828125
6066,-50.781250
6067,-50.781250
6068,-50.781250
6069,-50.781250
6070,-50.781250
6071,-56.640625
6072,-48.828125
6073,-52.734375
6074,-44.921875
6075,-54.687500
6076,-48.828125
6077,-50.781250
6078,-48.828125
6079,-48.828125
6080,-56.640625
6081,-52.734375
6082,-50.781250
6083,-48.828125
6084,-50.781250
6085,-54.687500
6086,-44.921875
6087,-50.781250
6088,-48.828125
6089,-48.828125
6090,-52.734375
6091,-50.781250
6092,-56.640625
6093,-50.781250
6094,-48.828125
6095,-50.781250
6096,-48.828125
6097,-48.828125
6098,-50.781250
6099,-46.875000
6100,-48.828125
6101,-48.828125
6102,-46.875000
6103,-48.828125
6104,-44.921875
6105,-46.875000
6106,-44.921875
6107,-44.921875
6108,-46.875000
6109,-41.015625
6110,-44.921875
6111,-41.015625
6112,-41.015625
6113,-41.015625
6114,-39.062500
6115,-39.062500
6116,-35.156250
6117,-37.109375
6118,-39.062500
6119,-35.156250
6120,-37.109375
6121,-39.062500
6122,-37.109375
6123,-33.203125
6124,-33.203125
6125,-29.296875
6126,-31.250000
6127,-29.296875
6128,-33.203125
6129,-29.296875
6130,-29.296875
6131,-29.296875
6132,-31.250000
6133,-29.296875
6134,-25.390625
6135,-29.296875
6136,-25.390625
6137,-25.390625
6138,-29.296875
6139,-29.296875
6140,-29.296875
6141,-25.390625
6142,-25.390625
6143,-29.296875
6144,-27.343750
6145,-29.296875
6146,-29.296875
6147,-25.390625
6148,-29.296875
6149,-31.250000
6150,-29.296875
6151,-29.296875
6152,-27.343750
6153,-31.250000
6154,-29.296875
6155,-33.203125
6156,-31.250000
6157,-29.296875
6158,-29.296875
6159,-31.250000
6160,-33.203125
6161,-33.203125
6162,-31.250000
6163,-35.156250
6164,-33.203125
6165,-35.156250
6166,-33.203125
6167,-33.203125
6168,-35.156250
6169,-33.203125
6170,-33.203125
6171,-35.156250
6172,-35.156250
6173,-37.109375
6174,-37.109375
6175,-37.109375
6176,-35.156250
6177,-33.203125
6178,-39.062500
6179,-39.062500
6180,-35.156250
6181,-39.062500
6182,-37.109375
6183,-39.062500
6184,-35.156250
6185,-35.156250
6186,-39.062500
6187,-35.156250
6188,-39.062500
6189,-37.109375
6190,-37.109375
6191,-39.062500
6192,-37.109375
6193,-56.640625
6194,-39.062500
6195,-39.062500
6196,-39.062500
6197,-39.062500
6198,-37.109375
6199,-39.062500
6200,-37.109375
6201,-41.015625
6202,-39.062500
6203,-41.015625
6204,-39.062500
6205,-37.109375
6206,-39.062500
6207,-41.015625
6208,-37.109375
6209,-37.109375
6210,-35.156250
6211,-35.156250
6212,-33.203125
6213,-35.156250
6214,-31.250000
6215,-33.203125
6216,-37.109375
6217,-29.296875
6218,-31.250000
6219,-31.250000
6220,-29.296875
6221,-31.250000
6222,-29.296875
6223,-29.296875
6224,-31.250000
6225,-29.296875
6226,-29.296875
6227,-29.296875
6228,-29.296875
6229,-27.343750
6230,-25.390625
6231,-25.390625
6232,-25.390625
6233,-23.437500
6234,-25.390625
6235,-23.437500
6236,-29.296875
6237,-23.437500
6238,-23.437500
6239,-23.437500
6240,-21.484375
6241,-25.390625
6242,-23.437500
6243,-29.296875
6244,-25.390625
6245,-21.484375
6246,-25.390625
6247,-21.484375
6248,-25.390625
6249,-23.437500
6250,-21.484375
6251,-23.437500
6252,-21.484375
6253,-19.531250
6254,-17.578125
6255,-25.390625
6256,-23.437500
6257,-23.437500
6258,-19.531250
6259,-23.437500
6260,-19.531250
6261,-23.437500
6262,-21.484375
6263,-21.484375
6264,-21.484375
6265,-19.531250
6266,-23.437500
6267,-19.531250
6268,-21.484375
6269,-21.484375
6270,-19.531250
6271,-21.484375
6272,-21.484375
6273,-19.531250
6274,-21.484375
6275,-21.484375
6276,-21.484375
6277,-21.484375
6278,-23.437500
6279,-23.437500
6280,-21.484375
6281,-21.484375
6282,-25.390625
6283,-21.484375
6284,-29.296875
6285,-23.437500
6286,-23.437500
6287,-29.296875
6288,-25.390625
6289,-25.390625
6290,-25.390625
6291,-29.296875
6292,-25.390625
6293,-29.296875
6294,-29.296875
6295,-27.343750
6296,-31.250000
6297,-25.390625
6298,-31.250000
6299,-27.343750
6300,-31.250000
6301,-31.250000
6302,-25.390625
6303,-29.296875
6304,-25.390625
6305,-31.250000
6306,-33.203125
6307,-31.250000
6308,-33.203125
6309,-29.296875
6310,-31.250000
6311,-35.156250
6312,-29.296875
6313,-29.296875
6314,-31.250000
6315,-25.390625
6316,-29.296875
6317,-31.250000
6318,-29.296875
6319,-29.296875
6320,-33.203125
6321,-29.296875
6322,-25.390625
6323,-25.390625
6324,-27.343750
6325,-25.390625
6326,-29.296875
6327,-25.390625
6328,-23.437500
6329,-21.484375
6330,-25.390625
6331,-25.390625
6332,-25.390625
6333,-23.437500
6334,-23.437500
6335,-23.437500
6336,-23.437500
6337,-23.437500
6338,-19.531250
6339,-19.531250
6340,-23.437500
6341,-21.484375
6342,-25.390625
6343,-17.578125
6344,-23.437500
6345,-23.437500
6346,-21.484375
6347,-21.484375
6348,-21.484375
6349,-21.484375
6350,-21.484375
6351,-19.531250
6352,-19.531250
6353,-19.531250
6354,-19.531250
6355,-19.531250
6356,-17.578125
6357,-19.531250
6358,-17.578125
6359,-17.578125
6360,-19.531250
6361,-13.671875
6362,-19.531250
6363,-17.578125
6364,-13.671875
6365,-17.578125
6366,-13.671875
6367,-17.578125
6368,-15.625000
6369,-15.625000
6370,-17.578125
6371,-13.671875
6372,-15.625000
6373,-15.625000
6374,-13.671875
6375,-19.531250
6376,-15.625000
6377,-15.625000
6378,-17.578125
6379,-21.484375
6380,-15.625000
6381,-15.625000
6382,-15.625000
6383,-9.765625
6384,-13.671875
6385,-15.625000
6386,-17.578125
6387,-13.671875
6388,-9.765625
6389,-15.625000
6390,-15.625000
6391,-17.578125
6392,-13.671875
6393,-17.578125
6394,-17.578125
6395,-17.578125
6396,-15.625000
6397,-15.625000
6398,-17.578125
6399,-17.578125
6400,-15.625000
6401,-17.578125
6402,-13.671875
6403,-17.578125
6404,-17.578125
6405,-17.578125
6406,-17.578125
6407,-17.578125
6408,-19.531250
6409,-17.578125
6410,-19.531250
6411,-25.390625
6412,-17.578125
6413,-19.531250
6414,-17.578125
6415,-21.484375
6416,-21.484375
6417,-21.484375
6418,-21.484375
6419,-19.531250
6420,-23.437500
6421,-23.437500
6422,-21.484375
6423,-23.437500
6424,-23.437500
6425,-23.437500
6426,-23.437500
6427,-21.484375
6428,-23.437500
6429,-25.390625
6430,-21.484375
6431,-25.390625
6432,-21.484375
6433,-25.390625
6434,-19.531250
6435,-23.437500
6436,-25.390625
6437,-23.437500
6438,-29.296875
6439,-25.390625
6440,-23.437500
6441,-29.296875
6442,-23.437500
6443,-23.437500
6444,-25.390625
6445,-25.390625
6446,-25.390625
6447,-19.531250
6448,-23.437500
6449,-25.390625
6450,-23.437500
6451,-29.296875
6452,-25.390625
6453,-25.390625
6454,-29.296875
6455,-25.390625
6456,-29.296875
6457,-25.390625
6458,-27.343750
6459,-25.390625
6460,-25.390625
6461,-29.296875
6462,-25.390625
6463,-29.296875
6464,-27.343750
6465,-25.390625
6466,-25.390625
6467,-27.343750
6468,-29.296875
6469,-29.296875
6470,-25.390625
6471,-27.343750
6472,-29.296875
6473,-23.437500
6474,-29.296875
6475,-25.390625
6476,-27.343750
6477,-25.390625
6478,-25.390625
6479,-25.390625
6480,-29.296875
6481,-25.390625
6482,-29.296875
6483,-25.390625
6484,-25.390625
6485,-29.296875
6486,-23.437500
6487,-25.390625
6488,-23.437500
6489,-25.390625
6490,-25.390625
6491,-25.390625
6492,-27.343750
6493,-25.390625
6494,-29.296875
6495,-27.343750
6496,-25.390625
6497,-25.390625
6498,-25.390625
6499,-25.390625
6500,-27.343750
6501,-25.390625
6502,-29.296875
6503,-29.296875
6504,-25.390625
6505,-27.343750
6506,-29.296875
6507,-25.390625
6508,-29.296875
6509,-25.390625
6510,-29.296875
6511,-29.296875
6512,-25.390625
6513,-29.296875
6514,-25.390625
6515,-21.484375
6516,-29.296875
6517,-29.296875
6518,-27.343750
6519,-25.390625
6520,-27.343750
6521,-27.343750
6522,-25.390625
6523,-29.296875
6524,-33.203125
6525,-29.296875
6526,-29.296875
6527,-25.390625
6528,-29.296875
6529,-25.390625
6530,-9.765625
6531,-29.296875
6532,-25.390625
6533,-29.296875
6534,-29.296875
6535,-29.296875
6536,-29.296875
6537,-29.296875
6538,-25.390625
6539,-25.390625
6540,-29.296875
6541,-25.390625
6542,-29.296875
6543,-29.296875
6544,-25.390625
6545,-29.296875
6546,-25.390625
6547,-31.250000
6548,-29.296875
6549,-29.296875
6550,-29.296875
6551,-29.296875
6552,-29.296875
6553,-29.296875
6554,-25.390625
6555,-33.203125
6556,-29.296875
6557,-25.390625
6558,-29.296875
6559,-23.437500
6560,-31.250000
6561,-25.390625
6562,-25.390625
6563,-29.296875
6564,-29.296875
6565,-27.343750
6566,-25.390625
6567,-25.390625
6568,-25.390625
6569,-31.250000
6570,-25.390625
6571,-25.390625
6572,-25.390625
6573,-25.390625
6574,-13.671875
6575,-23.437500
6576,-25.390625
6577,-23.437500
6578,-25.390625
6579,-27.343750
6580,-25.390625
6581,-25.390625
6582,-25.390625
6583,-15.625000
6584,-25.390625
6585,-23.437500
6586,-25.390625
6587,-25.390625
6588,-23.437500
6589,-23.437500
6590,-23.437500
6591,-25.390625
6592,-25.390625
6593,-23.437500
6594,-23.437500
6595,-25.390625
6596,-23.437500
6597,-29.296875
6598,-23.437500
6599,-23.437500
6600,-25.390625
6601,-23.437500
6602,-23.437500
6603,-23.437500
6604,-23.437500
6605,-25.390625
6606,-25.390625
6607,-25.390625
6608,-25.390625
6609,-25.390625
6610,-27.343750
6611,-21.484375
6612,-25.390625
6613,-25.390625
6614,-25.390625
6615,-25.390625
6616,-23.437500
6617,-29.296875
6618,-25.390625
6619,-25.390625
6620,-29.296875
6621,-23.437500
6622,-29.296875
6623,-29.296875
6624,-29.296875
6625,-29.296875
6626,-25.390625
6627,-29.296875
6628,-29.296875
6629,-29.296875
6630,-33.203125
6631,-33.203125
6632,-33.203125
6633,-35.156250
6634,-33.203125
6635,-39.062500
6636,-37.109375
6637,-39.062500
6638,-39.062500
6639,-41.015625
6640,-41.015625
6641,-42.968750
6642,-54.687500
6643,-44.921875
6644,-44.921875
6645,-48.828125
6646,-50.781250
6647,-44.921875
6648,-48.828125
6649,-48.828125
6650,-46.875000
6651,-48.828125
6652,-48.828125
6653,-52.734375
6654,-48.828125
6655,-52.734375
6656,-50.781250
6657,-50.781250
6658,-54.687500
6659,-48.828125
6660,-54.687500
6661,-54.687500
6662,-48.828125
6663,-54.687500
6664,-52.734375
6665,-50.781250
6666,-52.734375
6667,-48.828125
6668,-50.781250
6669,-48.828125
6670,-52.734375
6671,-48.828125
6672,-44.921875
6673,-48.828125
6674,-48.828125
6675,-33.203125
6676,-46.875000
6677,-41.015625
6678,-44.921875
6679,-41.015625
6680,-41.015625
6681,-41.015625
6682,-37.109375
6683,-33.203125
6684,-39.062500
6685,-35.156250
6686,-39.062500
6687,-35.156250
6688,-33.203125
6689,-35.156250
6690,-33.203125
6691,-35.156250
6692,-50.781250
6693,-33.203125
6694,-33.203125
6695,-31.250000
6696,-33.203125
6697,-31.250000
6698,-31.250000
6699,-31.250000
6700,-31.250000
6701,-33.203125
6702,-33.203125
6703,-31.250000
6704,-33.203125
6705,-33.203125
6706,-35.156250
6707,-33.203125
6708,-33.203125
6709,-35.156250
6710,-33.203125
6711,-41.015625
6712,-37.109375
6713,-37.109375
6714,-39.062500
6715,-37.109375
6716,-41.015625
6717,-42.968750
6718,-41.015625
6719,-44.921875
6720,-41.015625
6721,-46.875000
6722,-46.875000
6723,-44.921875
6724,-50.781250
6725,-44.921875
6726,-48.828125
6727,-48.828125
6728,-48.828125
6729,-52.734375
6730,-48.828125
6731,-48.828125
6732,-48.828125
6733,-46.875000
6734,-50.781250
6735,-50.781250
6736,-48.828125
6737,-52.734375
6738,-50.781250
6739,-52.734375
6740,-52.734375
6741,-48.828125
6742,-42.968750
6743,-48.828125
6744,-54.687500
6745,-54.687500
6746,-52.734375
6747,-52.734375
6748,-54.687500
6749,-54.687500
6750,-48.828125
6751,-52.734375
6752,-54.687500
6753,-54.687500
6754,-54.687500
6755,-52.734375
6756,-56.640625
6757,-54.687500
6758,-54.687500
6759,-54.687500
6760,-54.687500
6761,-52.734375
6762,-50.781250
6763,-52.734375
6764,-48.828125
6765,-52.734375
6766,-46.875000
6767,-50.781250
6768,-48.828125
6769,-48.828125
6770,-48.828125
6771,-44.921875
6772,-48.828125
6773,-46.875000
6774,-44.921875
6775,-44.921875
6776,-44.921875
6777,-44.921875
6778,-44.921875
6779,-41.015625
6780,-44.921875
6781,-41.015625
6782,-41.015625
6783,-44.921875
6784,-39.062500
6785,-41.015625
6786,-41.015625
6787,-41.015625
6788,-41.015625
6789,-39.062500
6790,-41.015625
6791,-37.109375
6792,-44.921875
6793,-41.015625
6794,-39.062500
6795,-41.015625
6796,-42.968750
6797,-41.015625
6798,-44.921875
6799,-41.015625
6800,-44.921875
6801,-44.921875
6802,-41.015625
6803,-44.921875
6804,-41.015625
6805,-42.968750
6806,-41.015625
6807,-44.921875
6808,-46.875000
6809,-44.921875
6810,-42.968750
6811,-44.921875
6812,-46.875000
6813,-48.828125
6814,-48.828125
6815,-41.015625
6816,-48.828125
6817,-50.781250
6818,-48.828125
6819,-50.781250
6820,-48.828125
6821,-50.781250
6822,-50.781250
6823,-48.828125
6824,-50.781250
6825,-52.734375
6826,-54.687500
6827,-54.687500
6828,-54.687500
6829,-54.687500
6830,-52.734375
6831,-54.687500
6832,-54.687500
6833,-52.734375
6834,-54.687500
6835,-52.734375
6836,-54.687500
6837,-56.640625
6838,-52.734375
6839,-56.640625
6840,-54.687500
6841,-54.687500
6842,-50.781250
6843,-52.734375
6844,-56.640625
6845,-52.734375
6846,-56.640625
6847,-56.640625
6848,-54.687500
6849,-56.640625
6850,-54.687500
6851,-54.687500
6852,-56.640625
6853,-52.734375
6854,-54.687500
6855,-54.687500
6856,-56.640625
6857,-56.640625
6858,-56.640625
6859,-56.640625
6860,-56.640625
6861,-54.687500
6862,-56.640625
6863,-54.687500
6864,-56.640625
6865,-56.640625
6866,-54.687500
6867,-56.640625
6868,-52.734375
6869,-62.500000
6870,-56.640625
6871,-52.734375
6872,-56.640625
6873,-54.687500
6874,-52.734375
6875,-56.640625
6876,-56.640625
6877,-56.640625
6878,-56.640625
6879,-54.687500
6880,-56.640625
6881,-54.687500
6882,-56.640625
6883,-52.734375
6884,-56.640625
6885,-56.640625
6886,-56.640625
6887,-56.640625
6888,-56.640625
6889,-56.640625
6890,-56.640625
6891,-54.687500
6892,-56.640625
6893,-56.640625
6894,-56.640625
6895,-58.593750
6896,-54.687500
6897,-56.640625
6898,-56.640625
6899,-56.640625
6900,-54.687500
6901,-50.781250
6902,-56.640625
6903,-54.687500
6904,-56.640625
6905,-52.734375
6906,-54.687500
6907,-56.640625
6908,-56.640625
6909,-56.640625
6910,-60.546875
6911,-54.687500
6912,-56.640625
6913,-56.640625
6914,-56.640625
6915,-54.687500
6916,-52.734375
6917,-52.734375
6918,-54.687500
6919,-56.640625
6920,-56.640625
6921,-54.687500
6922,-56.640625
6923,-54.687500
6924,-54.687500
6925,-56.640625
6926,-52.734375
6927,-52.734375
6928,-54.687500
6929,-52.734375
6930,-54.687500
6931,-52.734375
6932,-52.734375
6933,-56.640625
6934,-52.734375
6935,-52.734375
6936,-50.781250
6937,-50.781250
6938,-54.687500
6939,-50.781250
6940,-54.687500
6941,-52.734375
6942,-52.734375
6943,-54.687500
6944,-48.828125
6945,-52.734375
6946,-50.781250
6947,-54.687500
6948,-50.781250
6949,-52.734375
6950,-54.687500
6951,-48.828125
6952,-52.734375
6953,-54.687500
6954,-50.781250
6955,-52.734375
6956,-52.734375
6957,-52.734375
6958,-54.687500
6959,-52.734375
6960,-54.687500
6961,-54.687500
6962,-54.687500
6963,-50.781250
6964,-52.734375
6965,-54.687500
6966,-52.734375
6967,-54.687500
6968,-52.734375
6969,-48.828125
6970,-54.687500
6971,-48.828125
6972,-52.734375
6973,-54.687500
6974,-48.828125
6975,-52.734375
6976,-50.781250
6977,-54.687500
6978,-48.828125
6979,-50.781250
6980,-54.687500
6981,-48.828125
6982,-54.687500
6983,-52.734375
6984,-48.828125
6985,-52.734375
6986,-48.828125
6987,-54.687500
6988,-50.781250
6989,-48.828125
6990,-54.687500
6991,-50.781250
6992,-52.734375
6993,-52.734375
6994,-48.828125
6995,-52.734375
6996,-50.781250
6997,-41.015625
6998,-52.734375
6999,-50.781250
7000,-54.687500
7001,-50.781250
7002,-54.687500
7003,-54.687500
7004,-50.781250
7005,-56.640625
7006,-52.734375
7007,-54.687500
7008,-54.687500
7009,-54.687500
7010,-60.546875
7011,-52.734375
7012,-52.734375
7013,-54.687500
7014,-52.734375
7015,-52.734375
7016,-50.781250
7017,-54.687500
7018,-56.640625
7019,-54.687500
7020,-54.687500
7021,-54.687500
7022,-52.734375
7023,-54.687500
7024,-54.687500
7025,-52.734375
7026,-56.640625
7027,-54.687500
7028,-54.687500
7029,-52.734375
7030,-52.734375
7031,-54.687500
7032,-50.781250
7033,-56.640625
7034,-54.687500
7035,-52.734375
7036,-54.687500
7037,-52.734375
7038,-56.640625
7039,-54.687500
7040,-54.687500
7041,-52.734375
7042,-56.640625
7043,-54.687500
7044,-50.781250
7045,-56.640625
7046,-52.734375
7047,-56.640625
7048,-54.687500
7049,-54.687500
7050,-54.687500
7051,-54.687500
7052,-56.640625
7053,-56.640625
7054,-56.640625
7055,-72.265625
7056,-52.734375
7057,-56.640625
7058,-56.640625
7059,-54.687500
7060,-56.640625
7061,-50.781250
7062,-56.640625
7063,-54.687500
7064,-50.781250
7065,-56.640625
7066,-56.640625
7067,-60.546875
7068,-54.687500
7069,-50.781250
7070,-54.687500
7071,-56.640625
7072,-54.687500
7073,-54.687500
7074,-56.640625
7075,-52.734375
7076,-56.640625
7077,-54.687500
7078,-54.687500
7079,-54.687500
7080,-54.687500
7081,-56.640625
7082,-54.687500
7083,-54.687500
7084,-54.687500
7085,-54.687500
7086,-56.640625
7087,-54.687500
7088,-52.734375
7089,-56.640625
7090,-56.640625
7091,-56.640625
7092,-54.687500
7093,-52.734375
7094,-56.640625
7095,-52.734375
7096,-56.640625
7097,-56.640625
7098,-54.687500
7099,-56.640625
7100,-54.687500
7101,-56.640625
7102,-56.640625
7103,-54.687500
7104,-56.640625
7105,-56.640625
7106,-56.640625
7107,-54.687500
7108,-54.687500
7109,-56.640625
7110,-56.640625
7111,-54.687500
7112,-56.640625
7113,-56.640625
7114,-64.453125
7115,-56.640625
7116,-56.640625
7117,-56.640625
7118,-52.734375
7119,-56.640625
7120,-54.687500
7121,-56.640625
7122,-56.640625
7123,-52.734375
7124,-56.640625
7125,-54.687500
7126,-54.687500
7127,-56.640625
7128,-52.734375
7129,-50.781250
7130,-52.734375
7131,-52.734375
7132,-50.781250
7133,-48.828125
7134,-48.828125
7135,-50.781250
7136,-44.921875
7137,-46.875000
7138,-48.828125
7139,-46.875000
7140,-46.875000
7141,-44.921875
7142,-46.875000
7143,-44.921875
7144,-44.921875
7145,-46.875000
7146,-41.015625
7147,-44.921875
7148,-42.968750
7149,-41.015625
7150,-42.968750
7151,-39.062500
7152,-41.015625
7153,-39.062500
7154,-39.062500
7155,-37.109375
7156,-35.156250
7157,-37.109375
7158,-39.062500
7159,-35.156250
7160,-35.156250
7161,-31.250000
7162,-33.203125
7163,-33.203125
7164,-33.203125
7165,-33.203125
7166,-31.250000
7167,-31.250000
7168,-29.296875
7169,-27.343750
7170,-31.250000
7171,-29.296875
7172,-29.296875
7173,-25.390625
7174,-25.390625
7175,-29.296875
7176,-25.390625
7177,-29.296875
7178,-29.296875
7179,-25.390625
7180,-25.390625
7181,-27.343750
7182,-33.203125
7183,-29.296875
7184,-25.390625
7185,-29.296875
7186,-25.390625
7187,-25.390625
7188,-29.296875
7189,-23.437500
7190,-29.296875
7191,-27.343750
7192,-25.390625
7193,-31.250000
7194,-25.390625
7195,-29.296875
7196,-29.296875
7197,-29.296875
7198,-31.250000
7199,-29.296875
7200,-31.250000
7201,-33.203125
7202,-33.203125
7203,-33.203125
7204,-29.296875
7205,-31.250000
7206,-33.203125
7207,-33.203125
7208,-35.156250
7209,-33.203125
7210,-37.109375
7211,-35.156250
7212,-35.156250
7213,-37.109375
7214,-35.156250
7215,-37.109375
7216,-37.109375
7217,-35.156250
7218,-41.015625
7219,-37.109375
7220,-39.062500
7221,-33.203125
7222,-39.062500
7223,-39.062500
7224,-41.015625
7225,-39.062500
7226,-41.015625
7227,-41.015625
7228,-41.015625
7229,-42.968750
7230,-39.062500
7231,-44.921875
7232,-41.015625
7233,-39.062500
7234,-41.015625
7235,-39.062500
7236,-41.015625
7237,-41.015625
7238,-41.015625
7239,-41.015625
7240,-41.015625
7241,-42.968750
7242,-41.015625
7243,-41.015625
7244,-41.015625
7245,-41.015625
7246,-44.921875
7247,-42.968750
7248,-41.015625
7249,-44.921875
7250,-39.062500
7251,-41.015625
7252,-41.015625
7253,-39.062500
7254,-41.015625
7255,-39.062500
7256,-41.015625
7257,-39.062500
7258,-39.062500
7259,-39.062500
7260,-37.109375
7261,-39.062500
7262,-37.109375
7263,-37.109375
7264,-37.109375
7265,-35.156250
7266,-35.156250
7267,-33.203125
7268,-31.250000
7269,-31.250000
7270,-33.203125
7271,-29.296875
7272,-31.250000
7273,-27.343750
7274,-29.296875
7275,-29.296875
7276,-25.390625
7277,-29.296875
7278,-23.437500
7279,-25.390625
7280,-25.390625
7281,-23.437500
7282,-25.390625
7283,-23.437500
7284,-25.390625
7285,-23.437500
7286,-23.437500
7287,-25.390625
7288,-19.531250
7289,-23.437500
7290,-21.484375
7291,-25.390625
7292,-19.531250
7293,-21.484375
7294,-21.484375
7295,-19.531250
7296,-23.437500
7297,-19.531250
7298,-21.484375
7299,-19.531250
7300,-13.671875
7301,-21.484375
7302,-19.531250
7303,-23.437500
7304,-19.531250
7305,-19.531250
7306,-21.484375
7307,-19.531250
7308,-21.484375
7309,-19.531250
7310,-21.484375
7311,-23.437500
7312,-19.531250
7313,-21.484375
7314,-23.437500
7315,-17.578125
7316,-19.531250
7317,-21.484375
7318,-17.578125
7319,-19.531250
7320,-19.531250
7321,-19.531250
7322,-19.531250
7323,-15.625000
7324,-19.531250
7325,-21.484375
7326,-19.531250
7327,-19.531250
7328,-21.484375
7329,-21.484375
7330,-23.437500
7331,-19.531250
7332,-23.437500
7333,-13.671875
7334,-23.437500
7335,-23.437500
7336,-23.437500
7337,-25.390625
7338,-23.437500
7339,-25.390625
7340,-29.296875
7341,-25.390625
7342,-29.296875
7343,-29.296875
7344,-29.296875
7345,-29.296875
7346,-25.390625
7347,-29.296875
7348,-29.296875
7349,-29.296875
7350,-33.203125
7351,-31.250000
7352,-31.250000
7353,-29.296875
7354,-17.578125
7355,-33.203125
7356,-29.296875
7357,-31.250000
7358,-29.296875
7359,-33.203125
7360,-31.250000
7361,-29.296875
7362,-31.250000
7363,-31.250000
7364,-31.250000
7365,-35.156250
7366,-29.296875
7367,-29.296875
7368,-41.015625
7369,-29.296875
7370,-29.296875
7371,-31.250000
7372,-29.296875
7373,-33.203125
7374,-29.296875
7375,-29.296875
7376,-27.343750
7377,-27.343750
7378,-29.296875
7379,-25.390625
7380,-29.296875
7381,-25.390625
7382,-23.437500
7383,-27.343750
7384,-21.484375
7385,-25.390625
7386,-25.390625
7387,-23.437500
7388,-25.390625
7389,-23.437500
7390,-23.437500
7391,-21.484375
7392,-23.437500
7393,-25.390625
7394,-23.437500
7395,-21.484375
7396,-23.437500
7397,-19.531250
7398,-25.390625
7399,-25.390625
7400,-23.437500
7401,-21.484375
7402,-23.437500
7403,-25.390625
7404,-19.531250
7405,-23.437500
7406,-23.437500
7407,-19.531250
7408,-21.484375
7409,-19.531250
7410,-23.437500
7411,-21.484375
7412,-19.531250
7413,-19.531250
7414,-17.578125
7415,-19.531250
7416,-19.531250
7417,-15.625000
7418,-27.343750
7419,-17.578125
7420,-17.578125
7421,-15.625000
7422,-13.671875
7423,-13.671875
7424,-17.578125
7425,-13.671875
7426,-15.625000
7427,-13.671875
7428,-13.671875
7429,-13.671875
7430,-9.765625
7431,-13.671875
7432,-13.671875
7433,-9.765625
7434,-15.625000
7435,-9.765625
7436,-13.671875
7437,-13.671875
7438,-9.765625
7439,-13.671875
7440,-13.671875
7441,-13.671875
7442,-13.671875
7443,-13.671875
7444,-13.671875
7445,-9.765625
7446,-13.671875
7447,-13.671875
7448,-13.671875
7449,-15.625000
7450,-13.671875
7451,-17.578125
7452,-15.625000
7453,-15.625000
7454,-15.625000
7455,-15.625000
7456,-15.625000
7457,-19.531250
7458,-17.578125
7459,-17.578125
7460,-17.578125
7461,-17.578125
7462,-17.578125
7463,-19.531250
7464,-21.484375
7465,-19.531250
7466,-23.437500
7467,-21.484375
7468,-23.437500
7469,-23.437500
7470,-21.484375
7471,-23.437500
7472,-25.390625
7473,-25.390625
7474,-23.437500
7475,-25.390625
7476,-23.437500
7477,-23.437500
7478,-25.390625
7479,-25.390625
7480,-25.390625
7481,-25.390625
7482,-25.390625
7483,-25.390625
7484,-27.343750
7485,-29.296875
7486,-25.390625
7487,-25.390625
7488,-27.343750
7489,-25.390625
7490,-29.296875
7491,-29.296875
7492,-29.296875
7493,-31.250000
7494,-29.296875
7495,-41.015625
7496,-29.296875
7497,-25.390625
7498,-29.296875
7499,-25.390625
7500,-31.250000
7501,-29.296875
7502,-31.250000
7503,-29.296875
7504,-25.390625
7505,-29.296875
7506,-25.390625
7507,-27.343750
7508,-29.296875
7509,-29.296875
7510,-31.250000
7511,-25.390625
7512,-29.296875
7513,-29.296875
7514,-29.296875
7515,-29.296875
7516,-29.296875
7517,-29.296875
7518,-33.203125
7519,-25.390625
7520,-29.296875
7521,-29.296875
7522,-29.296875
7523,-31.250000
7524,-27.343750
7525,-29.296875
7526,-29.296875
7527,-25.390625
7528,-29.296875
7529,-25.390625
7530,-29.296875
7531,-31.250000
7532,-29.296875
7533,-31.250000
7534,-29.296875
7535,-27.343750
7536,-29.296875
7537,-25.390625
7538,-29.296875
7539,-29.296875
7540,-31.250000
7541,-29.296875
7542,-29.296875
7543,-31.250000
7544,-29.296875
7545,-31.250000
7546,-29.296875
7547,-29.296875
7548,-31.250000
7549,-23.437500
7550,-33.203125
7551,-29.296875
7552,-29.296875
7553,-31.250000
7554,-25.390625
7555,-31.250000
7556,-31.250000
7557,-33.203125
7558,-31.250000
7559,-29.296875
7560,-33.203125
7561,-29.296875
7562,-29.296875
7563,-31.250000
7564,-29.296875
7565,-29.296875
7566,-31.250000
7567,-29.296875
7568,-29.296875
7569,-31.250000
7570,-29.296875
7571,-31.250000
7572,-29.296875
7573,-29.296875
7574,-29.296875
7575,-27.343750
7576,-31.250000
7577,-25.390625
7578,-29.296875
7579,-29.296875
7580,-27.343750
7581,-29.296875
7582,-29.296875
7583,-29.296875
7584,-29.296875
7585,-27.343750
7586,-29.296875
7587,-29.296875
7588,-29.296875
7589,-29.296875
7590,-29.296875
7591,-25.390625
7592,-29.296875
7593,-25.390625
7594,-29.296875
7595,-25.390625
7596,-25.390625
7597,-29.296875
7598,-25.390625
7599,-29.296875
7600,-23.437500
7601,-25.390625
7602,-29.296875
7603,-25.390625
7604,-29.296875
7605,-25.390625
7606,-29.296875
7607,-23.437500
7608,-25.390625
7609,-25.390625
7610,-25.390625
7611,-25.390625
7612,-25.390625
7613,-25.390625
7614,-29.296875
7615,-25.390625
7616,-29.296875
7617,-29.296875
7618,-25.390625
7619,-29.296875
7620,-25.390625
7621,-25.390625
7622,-17.578125
7623,-25.390625
7624,-15.625000
7625,-23.437500
7626,-27.343750
7627,-23.437500
7628,-23.437500
7629,-25.390625
7630,-25.390625
7631,-23.437500
7632,-25.390625
7633,-25.390625
7634,-25.390625
7635,-25.390625
7636,-25.390625
7637,-25.390625
7638,-23.437500
7639,-25.390625
7640,-23.437500
7641,-25.390625
7642,-25.390625
7643,-23.437500
7644,-25.390625
7645,-19.531250
7646,-23.437500
7647,-25.390625
7648,-23.437500
7649,-25.390625
7650,-25.390625
7651,-25.390625
7652,-33.203125
7653,-23.437500
7654,-27.343750
7655,-25.390625
7656,-29.296875
7657,-27.343750
7658,-29.296875
7659,-29.296875
7660,-29.296875
7661,-33.203125
7662,-35.156250
7663,-31.250000
7664,-37.109375
7665,-33.203125
7666,-39.062500
7667,-39.062500
7668,-41.015625
7669,-39.062500
7670,-41.015625
7671,-44.921875
7672,-44.921875
7673,-44.921875
7674,-48.828125
7675,-44.921875
7676,-48.828125
7677,-50.781250
7678,-44.921875
7679,-50.781250
7680,-48.828125
7681,-48.828125
7682,-50.781250
7683,-48.828125
7684,-54.687500
7685,-50.781250
7686,-56.640625
7687,-52.734375
7688,-48.828125
7689,-52.734375
7690,-50.781250
7691,-52.734375
7692,-52.734375
7693,-50.781250
7694,-54.687500
7695,-52.734375
7696,-52.734375
7697,-50.781250
7698,-48.828125
7699,-54.687500
7700,-48.828125
7701,-50.781250
7702,-50.781250
7703,-48.828125
7704,-46.875000
7705,-48.828125
7706,-46.875000
7707,-46.875000
7708,-44.921875
7709,-46.875000
7710,-44.921875
7711,-44.921875
7712,-44.921875
7713,-41.015625
7714,-42.968750
7715,-39.062500
7716,-41.015625
7717,-41.015625
7718,-35.156250
7719,-35.156250
7720,-41.015625
7721,-37.109375
7722,-35.156250
7723,-33.203125
7724,-35.156250
7725,-33.203125
7726,-35.156250
7727,-33.203125
7728,-33.203125
7729,-33.203125
7730,-31.250000
7731,-31.250000
7732,-35.156250
7733,-31.250000
7734,-33.203125
7735,-31.250000
7736,-29.296875
7737,-33.203125
7738,-31.250000
7739,-35.156250
7740,-33.203125
7741,-31.250000
7742,-35.156250
7743,-35.156250
7744,-37.109375
7745,-35.156250
7746,-39.062500
7747,-39.062500
7748,-39.062500
7749,-41.015625
7750,-42.968750
7751,-41.015625
7752,-44.921875
7753,-44.921875
7754,-41.015625
7755,-44.921875
7756,-48.828125
7757,-48.828125
7758,-48.828125
7759,-48.828125
7760,-48.828125
7761,-48.828125
7762,-50.781250
7763,-44.921875
7764,-50.781250
7765,-48.828125
7766,-48.828125
7767,-50.781250
7768,-48.828125
7769,-52.734375
7770,-52.734375
7771,-50.781250
7772,-52.734375
7773,-48.828125
7774,-52.734375
7775,-50.781250
7776,-50.781250
7777,-50.781250
7778,-50.781250
7779,-50.781250
7780,-50.781250
7781,-50.781250
7782,-52.734375
7783,-50.781250
7784,-52.734375
7785,-50.781250
7786,-48.828125
7787,-54.687500
7788,-50.781250
7789,-52.734375
7790,-52.734375
7791,-52.734375
7792,-52.734375
7793,-48.828125
7794,-54.687500
7795,-48.828125
7796,-52.734375
7797,-48.828125
7798,-48.828125
7799,-60.546875
7800,-48.828125
7801,-50.781250
7802,-48.828125
7803,-46.875000
7804,-50.781250
7805,-44.921875
7806,-48.828125
7807,-44.921875
7808,-44.921875
7809,-48.828125
7810,-44.921875
7811,-46.875000
7812,-44.921875
7813,-46.875000
7814,-44.921875
7815,-46.875000
7816,-44.921875
7817,-48.828125
7818,-44.921875
7819,-41.015625
7820,-48.828125
7821,-44.921875
7822,-46.875000
7823,-44.921875
7824,-44.921875
7825,-46.875000
7826,-44.921875
7827,-46.875000
7828,-46.875000
7829,-44.921875
7830,-46.875000
7831,-48.828125
7832,-48.828125
7833,-50.781250
7834,-46.875000
7835,-48.828125
7836,-48.828125
7837,-48.828125
7838,-52.734375
7839,-48.828125
7840,-54.687500
7841,-48.828125
7842,-48.828125
7843,-50.781250
7844,-48.828125
7845,-52.734375
7846,-48.828125
7847,-50.781250
7848,-50.781250
7849,-52.734375
7850,-54.687500
7851,-48.828125
7852,-52.734375
7853,-48.828125
7854,-54.687500
7855,-52.734375
7856,-48.828125
7857,-54.687500
7858,-48.828125
7859,-54.687500
7860,-52.734375
7861,-48.828125
7862,-52.734375
7863,-48.828125
7864,-60.546875
7865,-46.875000
7866,-52.734375
7867,-52.734375
7868,-52.734375
7869,-52.734375
7870,-54.687500
7871,-48.828125
7872,-54.687500
7873,-52.734375
7874,-48.828125
7875,-50.781250
7876,-41.015625
7877,-50.781250
7878,-50.781250
7879,-50.781250
7880,-52.734375
7881,-48.828125
7882,-50.781250
7883,-48.828125
7884,-46.875000
7885,-48.828125
7886,-46.875000
7887,-46.875000
7888,-44.921875
7889,-44.921875
7890,-48.828125
7891,-44.921875
7892,-44.921875
7893,-46.875000
7894,-46.875000
7895,-46.875000
7896,-44.921875
7897,-41.015625
7898,-44.921875
7899,-41.015625
7900,-46.875000
7901,-42.968750
7902,-44.921875
7903,-44.921875
7904,-41.015625
7905,-44.921875
7906,-41.015625
7907,-44.921875
7908,-44.921875
7909,-44.921875
7910,-52.734375
7911,-41.015625
7912,-44.921875
7913,-44.921875
7914,-44.921875
7915,-44.921875
7916,-44.921875
7917,-46.875000
7918,-46.875000
7919,-46.875000
7920,-46.875000
7921,-46.875000
7922,-42.968750
7923,-46.875000
7924,-41.015625
7925,-44.921875
7926,-46.875000
7927,-46.875000
7928,-48.828125
7929,-46.875000
7930,-48.828125
7931,-48.828125
7932,-44.921875
7933,-48.828125
7934,-46.875000
7935,-46.875000
7936,-48.828125
7937,-46.875000
7938,-48.828125
7939,-48.828125
7940,-54.687500
7941,-50.781250
7942,-48.828125
7943,-48.828125
7944,-48.828125
7945,-52.734375
7946,-52.734375
7947,-50.781250
7948,-54.687500
7949,-48.828125
7950,-50.781250
7951,-54.687500
7952,-54.687500
7953,-54.687500
7954,-50.781250
7955,-52.734375
7956,-50.781250
7957,-52.734375
7958,-56.640625
7959,-50.781250
7960,-56.640625
7961,-52.734375
7962,-50.781250
7963,-54.687500
7964,-50.781250
7965,-54.687500
7966,-52.734375
7967,-52.734375
7968,-54.687500
7969,-52.734375
7970,-56.640625
7971,-54.687500
7972,-52.734375
7973,-54.687500
7974,-54.687500
7975,-50.781250
7976,-54.687500
7977,-52.734375
7978,-54.687500
7979,-52.734375
7980,-50.781250
7981,-54.687500
7982,-54.687500
7983,-52.734375
7984,-52.734375
7985,-52.734375
7986,-50.781250
7987,-52.734375
7988,-50.781250
7989,-52.734375
7990,-54.687500
7991,-54.687500
7992,-52.734375
7993,-52.734375
7994,-52.734375
7995,-48.828125
7996,-50.781250
7997,-48.828125
7998,-54.687500
7999,-52.734375
8000,-48.828125
8001,-52.734375
8002,-50.781250
8003,-50.781250
8004,-52.734375
8005,-48.828125
8006,-54.687500
8007,-48.828125
8008,-52.734375
8009,-52.734375
8010,-50.781250
8011,-54.687500
8012,-50.781250
8013,-54.687500
8014,-52.734375
8015,-48.828125
8016,-50.781250
8017,-50.781250
8018,-48.828125
8019,-48.828125
8020,-48.828125
8021,-50.781250
8022,-48.828125
8023,-48.828125
8024,-80.078125
8025,-48.828125
8026,-48.828125
8027,-48.828125
8028,-48.828125
8029,-52.734375
8030,-48.828125
8031,-50.781250
8032,-48.828125
8033,-48.828125
8034,-50.781250
8035,-46.875000
8036,-48.828125
8037,-44.921875
8038,-48.828125
8039,-46.875000
8040,-44.921875
8041,-52.734375
8042,-44.921875
8043,-52.734375
8044,-52.734375
8045,-48.828125
8046,-52.734375
8047,-46.875000
8048,-48.828125
8049,-50.781250
8050,-48.828125
8051,-50.781250
8052,-48.828125
8053,-52.734375
8054,-48.828125
8055,-46.875000
8056,-48.828125
8057,-46.875000
8058,-58.593750
8059,-50.781250
8060,-48.828125
8061,-52.734375
8062,-46.875000
8063,-50.781250
8064,-50.781250
8065,-50.781250
8066,-50.781250
8067,-46.875000
8068,-48.828125
8069,-50.781250
8070,-48.828125
8071,-48.828125
8072,-48.828125
8073,-48.828125
8074,-48.828125
8075,-48.828125
8076,-48.828125
8077,-50.781250
8078,-48.828125
8079,-48.828125
8080,-48.828125
8081,-48.828125
8082,-48.828125
8083,-48.828125
8084,-46.875000
8085,-52.734375
8086,-46.875000
8087,-50.781250
8088,-48.828125
8089,-48.828125
8090,-52.734375
8091,-48.828125
8092,-48.828125
8093,-48.828125
8094,-48.828125
8095,-48.828125
8096,-46.875000
8097,-48.828125
8098,-48.828125
8099,-46.875000
8100,-48.828125
8101,-48.828125
8102,-48.828125
8103,-48.828125
8104,-46.875000
8105,-48.828125
8106,-48.828125
8107,-48.828125
8108,-50.781250
8109,-48.828125
8110,-52.734375
8111,-48.828125
8112,-48.828125
8113,-50.781250
8114,-48.828125
8115,-52.734375
8116,-46.875000
8117,-48.828125
8118,-50.781250
8119,-48.828125
8120,-52.734375
8121,-48.828125
8122,-48.828125
8123,-48.828125
8124,-48.828125
8125,-52.734375
8126,-48.828125
8127,-48.828125
8128,-52.734375
8129,-48.828125
8130,-50.781250
8131,-52.734375
8132,-48.828125
8133,-48.828125
8134,-48.828125
8135,-48.828125
8136,-50.781250
8137,-48.828125
8138,-50.781250
8139,-50.781250
8140,-52.734375
8141,-48.828125
8142,-48.828125
8143,-50.781250
8144,-50.781250
8145,-48.828125
8146,-52.734375
8147,-50.781250
8148,-48.828125
8149,-54.687500
8150,-48.828125
8151,-50.781250
8152,-48.828125
8153,-35.156250
8154,-52.734375
8155,-52.734375
8156,-50.781250
8157,-50.781250
8158,-50.781250
8159,-48.828125
8160,-48.828125
8161,-48.828125
8162,-48.828125
8163,-46.875000
8164,-48.828125
8165,-46.875000
8166,-48.828125
8167,-48.828125
8168,-46.875000
8169,-46.875000
8170,-41.015625
8171,-44.921875
8172,-41.015625
8173,-41.015625
8174,-44.921875
8175,-39.062500
8176,-46.875000
8177,-39.062500
8178,-37.109375
8179,-41.015625
8180,-35.156250
8181,-39.062500
8182,-35.156250
8183,-33.203125
8184,-33.203125
8185,-33.203125
8186,-31.250000
8187,-33.203125
8188,-31.250000
8189,-31.250000
8190,-25.390625
8191,-29.296875
8192,-29.296875
8193,-25.390625
8194,-15.625000
8195,-25.390625
8196,-29.296875
8197,-29.296875
8198,-25.390625
8199,-25.390625
8200,-25.390625
8201,-27.343750
8202,-29.296875
8203,-29.296875
8204,-29.296875
8205,-29.296875
8206,-29.296875
8207,-31.250000
8208,-29.296875
8209,-29.296875
8210,-31.250000
8211,-31.250000
8212,-33.203125
8213,-33.203125
8214,-33.203125
8215,-35.156250
8216,-33.203125
8217,-29.296875
8218,-35.156250
8219,-35.156250
8220,-39.062500
8221,-37.109375
8222,-39.062500
8223,-35.156250
8224,-35.156250
8225,-39.062500
8226,-39.062500
8227,-41.015625
8228,-41.015625
8229,-39.062500
8230,-44.921875
8231,-44.921875
8232,-41.015625
8233,-44.921875
8234,-41.015625
8235,-44.921875
8236,-44.921875
8237,-44.921875
8238,-46.875000
8239,-44.921875
8240,-54.687500
8241,-48.828125
8242,-44.921875
8243,-48.828125
8244,-50.781250
8245,-48.828125
8246,-48.828125
8247,-50.781250
8248,-50.781250
8249,-48.828125
8250,-50.781250
8251,-52.734375
8252,-48.828125
8253,-41.015625
8254,-50.781250
8255,-50.781250
8256,-52.734375
8257,-48.828125
8258,-50.781250
8259,-44.921875
8260,-48.828125
8261,-48.828125
8262,-46.875000
8263,-44.921875
8264,-41.015625
8265,-44.921875
8266,-42.968750
8267,-41.015625
8268,-41.015625
8269,-35.156250
8270,-39.062500
8271,-35.156250
8272,-33.203125
8273,-35.156250
8274,-33.203125
8275,-33.203125
8276,-33.203125
8277,-31.250000
8278,-31.250000
8279,-31.250000
8280,-29.296875
8281,-29.296875
8282,-25.390625
8283,-27.343750
8284,-27.343750
8285,-27.343750
8286,-25.390625
8287,-25.390625
8288,-27.343750
8289,-25.390625
8290,-31.250000
8291,-25.390625
8292,-25.390625
8293,-25.390625
8294,-29.296875
8295,-29.296875
8296,-23.437500
8297,-25.390625
8298,-27.343750
8299,-29.296875
8300,-29.296875
8301,-25.390625
8302,-27.343750
8303,-29.296875
8304,-25.390625
8305,-29.296875
8306,-29.296875
8307,-29.296875
8308,-33.203125
8309,-25.390625
8310,-29.296875
8311,-25.390625
8312,-29.296875
8313,-29.296875
8314,-27.343750
8315,-29.296875
8316,-29.296875
8317,-29.296875
8318,-31.250000
8319,-31.250000
8320,-29.296875
8321,-33.203125
8322,-33.203125
8323,-31.250000
8324,-35.156250
8325,-31.250000
8326,-35.156250
8327,-33.203125
8328,-33.203125
8329,-37.109375
8330,-33.203125
8331,-35.156250
8332,-33.203125
8333,-33.203125
8334,-35.156250
8335,-35.156250
8336,-35.156250
8337,-35.156250
8338,-33.203125
8339,-35.156250
8340,-33.203125
8341,-35.156250
8342,-33.203125
8343,-35.156250
8344,-33.203125
8345,-33.203125
8346,-31.250000
8347,-11.718750
8348,-31.250000
8349,-33.203125
8350,-29.296875
8351,-31.250000
8352,-33.203125
8353,-29.296875
8354,-29.296875
8355,-31.250000
8356,-31.250000
8357,-31.250000
8358,-25.390625
8359,-29.296875
8360,-25.390625
8361,-27.343750
8362,-27.343750
8363,-23.437500
8364,-25.390625
8365,-25.390625
8366,-23.437500
8367,-25.390625
8368,-23.437500
8369,-25.390625
8370,-23.437500
8371,-13.671875
8372,-23.437500
8373,-23.437500
8374,-21.484375
8375,-21.484375
8376,-23.437500
8377,-21.484375
8378,-21.484375
8379,-21.484375
8380,-21.484375
8381,-19.531250
8382,-21.484375
8383,-23.437500
8384,-19.531250
8385,-19.531250
8386,-17.578125
8387,-19.531250
8388,-21.484375
8389,-19.531250
8390,-21.484375
8391,-19.531250
8392,-21.484375
8393,-23.437500
8394,-21.484375
8395,-23.437500
8396,-25.390625
8397,-23.437500
8398,-25.390625
8399,-25.390625
8400,-23.437500
8401,-27.343750
8402,-25.390625
8403,-29.296875
8404,-25.390625
8405,-29.296875
8406,-29.296875
8407,-29.296875
8408,-33.203125
8409,-29.296875
8410,-31.250000
8411,-31.250000
8412,-29.296875
8413,-31.250000
8414,-33.203125
8415,-31.250000
8416,-33.203125
8417,-33.203125
8418,-33.203125
8419,-33.203125
8420,-33.203125
8421,-33.203125
8422,-33.203125
8423,-33.203125
8424,-33.203125
8425,-33.203125
8426,-33.203125
8427,-31.250000
8428,-33.203125
8429,-33.203125
8430,-21.484375
8431,-31.250000
8432,-31.250000
8433,-31.250000
8434,-29.296875
8435,-29.296875
8436,-31.250000
8437,-25.390625
8438,-25.390625
8439,-25.390625
8440,-25.390625
8441,-25.390625
8442,-25.390625
8443,-25.390625
8444,-25.390625
8445,-23.437500
8446,-23.437500
8447,-25.390625
8448,-23.437500
8449,-25.390625
8450,-21.484375
8451,-23.437500
8452,-21.484375
8453,-19.531250
8454,-23.437500
8455,-19.531250
8456,-21.484375
8457,-17.578125
8458,-17.578125
8459,-15.625000
8460,-17.578125
8461,-21.484375
8462,-17.578125
8463,-17.578125
8464,-17.578125
8465,-15.625000
8466,-13.671875
8467,-13.671875
8468,-13.671875
8469,-17.578125
8470,-13.671875
8471,-7.812500
8472,-13.671875
8473,-11.718750
8474,-13.671875
8475,-23.437500
8476,-13.671875
8477,-15.625000
8478,-13.671875
8479,-13.671875
8480,-13.671875
8481,-13.671875
8482,-15.625000
8483,-15.625000
8484,-13.671875
8485,-17.578125
8486,-13.671875
8487,-17.578125
8488,-17.578125
8489,-11.718750
8490,-21.484375
8491,-17.578125
8492,-19.531250
8493,-21.484375
8494,-19.531250
8495,-21.484375
8496,-21.484375
8497,-23.437500
8498,-23.437500
8499,-23.437500
8500,-27.343750
8501,-23.437500
8502,-25.390625
8503,-23.437500
8504,-25.390625
8505,-27.343750
8506,-25.390625
8507,-29.296875
8508,-25.390625
8509,-25.390625
8510,-31.250000
8511,-25.390625
8512,-29.296875
8513,-31.250000
8514,-25.390625
8515,-29.296875
8516,-29.296875
8517,-29.296875
8518,-29.296875
8519,-25.390625
8520,-29.296875
8521,-29.296875
8522,-29.296875
8523,-29.296875
8524,-21.484375
8525,-21.484375
8526,-29.296875
8527,-25.390625
8528,-29.296875
8529,-25.390625
8530,-25.390625
8531,-33.203125
8532,-29.296875
8533,-29.296875
8534,-23.437500
8535,-29.296875
8536,-25.390625
8537,-25.390625
8538,-25.390625
8539,-23.437500
8540,-25.390625
8541,-21.484375
8542,-23.437500
8543,-21.484375
8544,-21.484375
8545,-25.390625
8546,-21.484375
8547,-23.437500
8548,-23.437500
8549,-23.437500
8550,-23.437500
8551,-19.531250
8552,-21.484375
8553,-21.484375
8554,-21.484375
8555,-23.437500
8556,-19.531250
8557,-23.437500
8558,-23.437500
8559,-21.484375
8560,-23.437500
8561,-19.531250
8562,-23.437500
8563,-21.484375
8564,-21.484375
8565,-21.484375
8566,-21.484375
8567,-21.484375
8568,-23.437500
8569,-23.437500
8570,-21.484375
8571,-21.484375
8572,-23.437500
8573,-23.437500
8574,-23.437500
8575,-23.437500
8576,-19.531250
8577,-21.484375
8578,-23.437500
8579,-23.437500
8580,-19.531250
8581,-21.484375
8582,-19.531250
8583,-23.437500
8584,-23.437500
8585,-17.578125
8586,-25.390625
8587,-21.484375
8588,-21.484375
8589,-21.484375
8590,-19.531250
8591,-25.390625
8592,-21.484375
8593,-19.531250
8594,-21.484375
8595,-19.531250
8596,-23.437500
8597,-21.484375
8598,-21.484375
8599,-19.531250
8600,-23.437500
8601,-23.437500
8602,-23.437500
8603,-19.531250
8604,-23.437500
8605,-19.531250
8606,-25.390625
8607,-19.531250
8608,-23.437500
8609,-25.390625
8610,-21.484375
8611,-25.390625
8612,-23.437500
8613,-23.437500
8614,-25.390625
8615,-21.484375
8616,-23.437500
8617,-23.437500
8618,-23.437500
8619,-23.437500
8620,-23.437500
8621,-25.390625
8622,-25.390625
8623,-25.390625
8624,-29.296875
8625,-23.437500
8626,-23.437500
8627,-25.390625
8628,-21.484375
8629,-23.437500
8630,-23.437500
8631,-25.390625
8632,-25.390625
8633,-23.437500
8634,-25.390625
8635,-23.437500
8636,-25.390625
8637,-27.343750
8638,-19.531250
8639,-25.390625
8640,-25.390625
8641,-23.437500
8642,-25.390625
8643,-25.390625
8644,-25.390625
8645,-23.437500
8646,-23.437500
8647,-25.390625
8648,-25.390625
8649,-25.390625
8650,-23.437500
8651,-25.390625
8652,-23.437500
8653,-25.390625
8654,-25.390625
8655,-23.437500
8656,-25.390625
8657,-25.390625
8658,-25.390625
8659,-25.390625
8660,-23.437500
8661,-25.390625
8662,-23.437500
8663,-25.390625
8664,-25.390625
8665,-23.437500
8666,-19.531250
8667,-29.296875
8668,-25.390625
8669,-25.390625
8670,-25.390625
8671,-25.390625
8672,-29.296875
8673,-25.390625
8674,-29.296875
8675,-29.296875
8676,-27.343750
8677,-29.296875
8678,-29.296875
8679,-33.203125
8680,-31.250000
8681,-31.250000
8682,-31.250000
8683,-33.203125
8684,-33.203125
8685,-33.203125
8686,-33.203125
8687,-37.109375
8688,-37.109375
8689,-37.109375
8690,-37.109375
8691,-41.015625
8692,-41.015625
8693,-41.015625
8694,-41.015625
8695,-41.015625
8696,-41.015625
8697,-44.921875
8698,-44.921875
8699,-44.921875
8700,-46.875000
8701,-41.015625
8702,-44.921875
8703,-46.875000
8704,-48.828125
8705,-48.828125
8706,-46.875000
8707,-48.828125
8708,-50.781250
8709,-48.828125
8710,-48.828125
8711,-46.875000
8712,-50.781250
8713,-50.781250
8714,-48.828125
8715,-48.828125
8716,-48.828125
8717,-54.687500
8718,-50.781250
8719,-48.828125
8720,-52.734375
8721,-48.828125
8722,-48.828125
8723,-50.781250
8724,-50.781250
8725,-48.828125
8726,-50.781250
8727,-50.781250
8728,-50.781250
8729,-48.828125
8730,-48.828125
8731,-48.828125
8732,-48.828125
8733,-48.828125
8734,-54.687500
8735,-48.828125
8736,-46.875000
8737,-44.921875
8738,-46.875000
8739,-46.875000
8740,-44.921875
8741,-44.921875
8742,-41.015625
8743,-35.156250
8744,-41.015625
8745,-41.015625
8746,-37.109375
8747,-37.109375
8748,-39.062500
8749,-35.156250
8750,-35.156250
8751,-37.109375
8752,-33.203125
8753,-37.109375
8754,-29.296875
8755,-31.250000
8756,-33.203125
8757,-29.296875
8758,-29.296875
8759,-29.296875
8760,-31.250000
8761,-31.250000
8762,-25.390625
8763,-29.296875
8764,-29.296875
8765,-25.390625
8766,-25.390625
8767,-25.390625
8768,-29.296875
8769,-29.296875
8770,-25.390625
8771,-29.296875
8772,-25.390625
8773,-25.390625
8774,-29.296875
8775,-25.390625
8776,-29.296875
8777,-29.296875
8778,-25.390625
8779,-29.296875
8780,-25.390625
8781,-25.390625
8782,-29.296875
8783,-25.390625
8784,-29.296875
8785,-25.390625
8786,-25.390625
8787,-29.296875
8788,-25.390625
8789,-29.296875
8790,-25.390625
8791,-31.250000
8792,-25.390625
8793,-33.203125
8794,-31.250000
8795,-31.250000
8796,-35.156250
8797,-35.156250
8798,-35.156250
8799,-39.062500
8800,-39.062500
8801,-41.015625
8802,-48.828125
8803,-41.015625
8804,-44.921875
8805,-44.921875
8806,-46.875000
8807,-44.921875
8808,-44.921875
8809,-50.781250
8810,-48.828125
8811,-52.734375
8812,-50.781250
8813,-52.734375
8814,-54.687500
8815,-54.687500
8816,-52.734375
8817,-50.781250
8818,-54.687500
8819,-54.687500
8820,-56.640625
8821,-56.640625
8822,-54.687500
8823,-56.640625
8824,-54.687500
8825,-56.640625
8826,-56.640625
8827,-54.687500
8828,-56.640625
8829,-56.640625
8830,-56.640625
8831,-56.640625
8832,-56.640625
8833,-56.640625
8834,-54.687500
8835,-54.687500
8836,-52.734375
8837,-48.828125
8838,-50.781250
8839,-44.921875
8840,-46.875000
8841,-48.828125
8842,-42.968750
8843,-41.015625
8844,-41.015625
8845,-42.968750
8846,-41.015625
8847,-37.109375
8848,-39.062500
8849,-37.109375
8850,-37.109375
8851,-39.062500
8852,-35.156250
8853,-35.156250
8854,-37.109375
8855,-33.203125
8856,-56.640625
8857,-33.203125
8858,-33.203125
8859,-33.203125
8860,-33.203125
8861,-37.109375
8862,-33.203125
8863,-37.109375
8864,-35.156250
8865,-35.156250
8866,-39.062500
8867,-41.015625
8868,-41.015625
8869,-39.062500
8870,-41.015625
8871,-44.921875
8872,-42.968750
8873,-44.921875
8874,-46.875000
8875,-44.921875
8876,-48.828125
8877,-48.828125
8878,-48.828125
8879,-48.828125
8880,-48.828125
8881,-50.781250
8882,-48.828125
8883,-50.781250
8884,-52.734375
8885,-48.828125
8886,-50.781250
8887,-50.781250
8888,-50.781250
8889,-52.734375
8890,-48.828125
8891,-48.828125
8892,-50.781250
8893,-50.781250
8894,-52.734375
8895,-48.828125
8896,-50.781250
8897,-48.828125
8898,-52.734375
8899,-52.734375
8900,-48.828125
8901,-48.828125
8902,-44.921875
8903,-48.828125
8904,-50.781250
8905,-48.828125
8906,-48.828125
8907,-48.828125
8908,-50.781250
8909,-50.781250
8910,-48.828125
8911,-50.781250
8912,-48.828125
8913,-44.921875
8914,-50.781250
8915,-44.921875
8916,-50.781250
8917,-48.828125
8918,-48.828125
8919,-48.828125
8920,-56.640625
8921,-52.734375
8922,-48.828125
8923,-48.828125
8924,-48.828125
8925,-44.921875
8926,-48.828125
8927,-48.828125
8928,-48.828125
8929,-50.781250
8930,-46.875000
8931,-48.828125
8932,-46.875000
8933,-46.875000
8934,-44.921875
8935,-46.875000
8936,-46.875000
8937,-48.828125
8938,-44.921875
8939,-46.875000
8940,-46.875000
8941,-46.875000
8942,-48.828125
8943,-46.875000
8944,-48.828125
8945,-44.921875
8946,-48.828125
8947,-46.875000
8948,-44.921875
8949,-48.828125
8950,-46.875000
8951,-48.828125
8952,-48.828125
8953,-48.828125
8954,-48.828125
8955,-48.828125
8956,-52.734375
8957,-50.781250
8958,-50.781250
8959,-52.734375
8960,-46.875000
8961,-48.828125
8962,-48.828125
8963,-48.828125
8964,-48.828125
8965,-48.828125
8966,-52.734375
8967,-48.828125
8968,-52.734375
8969,-52.734375
8970,-41.015625
8971,-48.828125
8972,-48.828125
8973,-48.828125
8974,-54.687500
8975,-48.828125
8976,-50.781250
8977,-48.828125
8978,-48.828125
8979,-48.828125
8980,-46.875000
8981,-50.781250
8982,-50.781250
8983,-48.828125
8984,-48.828125
8985,-46.875000
8986,-52.734375
8987,-48.828125
8988,-50.781250
8989,-48.828125
8990,-50.781250
8991,-48.828125
8992,-50.781250
8993,-48.828125
8994,-56.640625
8995,-48.828125
8996,-48.828125
8997,-48.828125
8998,-46.875000
8999,-46.875000
9000,-44.921875
9001,-44.921875
9002,-46.875000
9003,-44.921875
9004,-44.921875
9005,-41.015625
9006,-44.921875
9007,-42.968750
9008,-41.015625
9009,-44.921875
9010,-41.015625
9011,-41.015625
9012,-44.921875
9013,-41.015625
9014,-41.015625
9015,-41.015625
9016,-41.015625
9017,-41.015625
9018,-41.015625
9019,-41.015625
9020,-41.015625
9021,-41.015625
9022,-42.968750
9023,-41.015625
9024,-41.015625
9025,-41.015625
9026,-41.015625
9027,-44.921875
9028,-41.015625
9029,-44.921875
9030,-41.015625
9031,-41.015625
9032,-41.015625
9033,-44.921875
9034,-44.921875
9035,-44.921875
9036,-41.015625
9037,-44.921875
9038,-44.921875
9039,-48.828125
9040,-42.968750
9041,-54.687500
9042,-44.921875
9043,-44.921875
9044,-48.828125
9045,-44.921875
9046,-48.828125
9047,-46.875000
9048,-48.828125
9049,-48.828125
9050,-46.875000
9051,-48.828125
9052,-48.828125
9053,-48.828125
9054,-50.781250
9055,-46.875000
9056,-48.828125
9057,-48.828125
9058,-48.828125
9059,-50.781250
9060,-48.828125
9061,-52.734375
9062,-50.781250
9063,-48.828125
9064,-52.734375
9065,-50.781250
9066,-48.828125
9067,-52.734375
9068,-48.828125
9069,-52.734375
9070,-56.640625
9071,-48.828125
9072,-48.828125
9073,-48.828125
9074,-48.828125
9075,-54.687500
9076,-48.828125
9077,-48.828125
9078,-48.828125
9079,-44.921875
9080,-46.875000
9081,-44.921875
9082,-46.875000
9083,-44.921875
9084,-44.921875
9085,-44.921875
9086,-41.015625
9087,-44.921875
9088,-56.640625
9089,-41.015625
9090,-41.015625
9091,-39.062500
9092,-39.062500
9093,-39.062500
9094,-37.109375
9095,-37.109375
9096,-37.109375
9097,-37.109375
9098,-37.109375
9099,-35.156250
9100,-35.156250
9101,-33.203125
9102,-35.156250
9103,-33.203125
9104,-33.203125
9105,-33.203125
9106,-31.250000
9107,-33.203125
9108,-33.203125
9109,-31.250000
9110,-33.203125
9111,-29.296875
9112,-31.250000
9113,-33.203125
9114,-31.250000
9115,-31.250000
9116,-27.343750
9117,-33.203125
9118,-29.296875
9119,-29.296875
9120,-31.250000
9121,-33.203125
9122,-33.203125
9123,-31.250000
9124,-29.296875
9125,-33.203125
9126,-31.250000
9127,-33.203125
9128,-33.203125
9129,-33.203125
9130,-31.250000
9131,-31.250000
9132,-31.250000
9133,-33.203125
9134,-29.296875
9135,-35.156250
9136,-33.203125
9137,-33.203125
9138,-33.203125
9139,-33.203125
9140,-35.156250
9141,-33.203125
9142,-33.203125
9143,-35.156250
9144,-35.156250
9145,-39.062500
9146,-37.109375
9147,-37.109375
9148,-39.062500
9149,-35.156250
9150,-41.015625
9151,-37.109375
9152,-41.015625
9153,-41.015625
9154,-39.062500
9155,-41.015625
9156,-39.062500
9157,-41.015625
9158,-41.015625
9159,-41.015625
9160,-42.968750
9161,-41.015625
9162,-41.015625
9163,-41.015625
9164,-41.015625
9165,-44.921875
9166,-41.015625
9167,-42.968750
9168,-42.968750
9169,-44.921875
9170,-46.875000
9171,-44.921875
9172,-44.921875
9173,-44.921875
9174,-44.921875
9175,-46.875000
9176,-41.015625
9177,-44.921875
9178,-44.921875
9179,-48.828125
9180,-44.921875
9181,-44.921875
9182,-44.921875
9183,-46.875000
9184,-44.921875
9185,-46.875000
9186,-46.875000
9187,-46.875000
9188,-48.828125
9189,-46.875000
9190,-48.828125
9191,-48.828125
9192,-48.828125
9193,-50.781250
9194,-44.921875
9195,-52.734375
9196,-48.828125
9197,-41.015625
9198,-48.828125
9199,-50.781250
9200,-52.734375
9201,-54.687500
9202,-52.734375
9203,-56.640625
9204,-54.687500
9205,-56.640625
9206,-46.875000
9207,-54.687500
9208,-56.640625
9209,-56.640625
9210,-56.640625
9211,-56.640625
9212,-54.687500
9213,-56.640625
9214,-56.640625
9215,-56.640625
9216,-56.640625
9217,-56.640625
9218,-56.640625
9219,-56.640625
9220,-56.640625
9221,-56.640625
9222,-54.687500
9223,-56.640625
9224,-56.640625
9225,-56.640625
9226,-54.687500
9227,-56.640625
9228,-56.640625
9229,-56.640625
9230,-56.640625
9231,-60.546875
9232,-54.687500
9233,-56.640625
9234,-56.640625
9235,-56.640625
9236,-56.640625
9237,-56.640625
9238,-56.640625
9239,-56.640625
9240,-54.687500
9241,-54.687500
9242,-56.640625
9243,-52.734375
9244,-56.640625
9245,-52.734375
9246,-56.640625
9247,-60.546875
9248,-56.640625
9249,-56.640625
9250,-54.687500
9251,-56.640625
9252,-54.687500
9253,-56.640625
9254,-54.687500
9255,-54.687500
9256,-56.640625
9257,-54.687500
9258,-56.640625
9259,-54.687500
9260,-56.640625
9261,-54.687500
9262,-54.687500
9263,-54.687500
9264,-54.687500
9265,-66.406250
9266,-54.687500
9267,-54.687500
9268,-54.687500
9269,-52.734375
9270,-50.781250
9271,-52.734375
9272,-54.687500
9273,-54.687500
9274,-52.734375
9275,-50.781250
9276,-54.687500
9277,-50.781250
9278,-54.687500
9279,-52.734375
9280,-48.828125
9281,-52.734375
9282,-50.781250
9283,-54.687500
9284,-48.828125
9285,-54.687500
9286,-48.828125
9287,-50.781250
9288,-54.687500
9289,-50.781250
9290,-52.734375
9291,-50.781250
9292,-54.687500
9293,-52.734375
9294,-48.828125
9295,-56.640625
9296,-48.828125
9297,-50.781250
9298,-52.734375
9299,-50.781250
9300,-54.687500
9301,-50.781250
9302,-54.687500
9303,-52.734375
9304,-48.828125
9305,-54.687500
9306,-46.875000
9307,-50.781250
9308,-54.687500
9309,-52.734375
9310,-54.687500
9311,-48.828125
9312,-52.734375
9313,-48.828125
9314,-48.828125
9315,-48.828125
9316,-48.828125
9317,-44.921875
9318,-46.875000
9319,-48.828125
9320,-44.921875
9321,-44.921875
9322,-56.640625
9323,-41.015625
9324,-42.968750
9325,-41.015625
9326,-41.015625
9327,-41.015625
9328,-37.109375
9329,-37.109375
9330,-35.156250
9331,-35.156250
9332,-33.203125
9333,-33.203125
9334,-39.062500
9335,-29.296875
9336,-33.203125
9337,-33.203125
9338,-29.296875
9339,-31.250000
9340,-33.203125
9341,-31.250000
9342,-31.250000
9343,-29.296875
9344,-29.296875
9345,-29.296875
9346,-29.296875
9347,-29.296875
9348,-25.390625
9349,-29.296875
9350,-29.296875
9351,-29.296875
9352,-29.296875
9353,-25.390625
9354,-29.296875
9355,-21.484375
9356,-29.296875
9357,-29.296875
9358,-29.296875
9359,-31.250000
9360,-29.296875
9361,-31.250000
9362,-29.296875
9363,-29.296875
9364,-33.203125
9365,-29.296875
9366,-31.250000
9367,-29.296875
9368,-31.250000
9369,-31.250000
9370,-25.390625
9371,-31.250000
9372,-33.203125
9373,-29.296875
9374,-39.062500
9375,-33.203125
9376,-31.250000
9377,-33.203125
9378,-33.203125
9379,-31.250000
9380,-33.203125
9381,-33.203125
9382,-35.156250
9383,-33.203125
9384,-35.156250
9385,-33.203125
9386,-35.156250
9387,-35.156250
9388,-35.156250
9389,-35.156250
9390,-33.203125
9391,-33.203125
9392,-35.156250
9393,-35.156250
9394,-39.062500
9395,-35.156250
9396,-37.109375
9397,-39.062500
9398,-35.156250
9399,-37.109375
9400,-35.156250
9401,-35.156250
9402,-37.109375
9403,-35.156250
9404,-37.109375
9405,-37.109375
9406,-33.203125
9407,-35.156250
9408,-33.203125
9409,-35.156250
9410,-33.203125
9411,-35.156250
9412,-33.203125
9413,-33.203125
9414,-33.203125
9415,-33.203125
9416,-29.296875
9417,-33.203125
9418,-29.296875
9419,-33.203125
9420,-31.250000
9421,-31.250000
9422,-31.250000
9423,-29.296875
9424,-23.437500
9425,-29.296875
9426,-31.250000
9427,-29.296875
9428,-27.343750
9429,-27.343750
9430,-29.296875
9431,-23.437500
9432,-29.296875
9433,-31.250000
9434,-25.390625
9435,-25.390625
9436,-23.437500
9437,-23.437500
9438,-25.390625
9439,-23.437500
9440,-25.390625
9441,-23.437500
9442,-25.390625
9443,-25.390625
9444,-23.437500
9445,-25.390625
9446,-25.390625
9447,-21.484375
9448,-25.390625
9449,-25.390625
9450,-25.390625
9451,-23.437500
9452,-25.390625
9453,-25.390625
9454,-23.437500
9455,-25.390625
9456,-19.531250
9457,-29.296875
9458,-25.390625
9459,-23.437500
9460,-25.390625
9461,-25.390625
9462,-25.390625
9463,-25.390625
9464,-25.390625
9465,-27.343750
9466,-23.437500
9467,-23.437500
9468,-25.390625
9469,-29.296875
9470,-29.296875
9471,-27.343750
9472,-27.343750
9473,-25.390625
9474,-35.156250
9475,-25.390625
9476,-25.390625
9477,-29.296875
9478,-25.390625
9479,-25.390625
9480,-29.296875
9481,-25.390625
9482,-29.296875
9483,-31.250000
9484,-29.296875
9485,-25.390625
9486,-25.390625
9487,-27.343750
9488,-29.296875
9489,-25.390625
9490,-29.296875
9491,-25.390625
9492,-27.343750
9493,-25.390625
9494,-25.390625
9495,-25.390625
9496,-25.390625
9497,-27.343750
9498,-25.390625
9499,-25.390625
9500,-25.390625
9501,-23.437500
9502,-25.390625
9503,-25.390625
9504,-25.390625
9505,-23.437500
9506,-23.437500
9507,-25.390625
9508,-25.390625
9509,-23.437500
9510,-25.390625
9511,-21.484375
9512,-21.484375
9513,-19.531250
9514,-23.437500
9515,-23.437500
9516,-17.578125
9517,-19.531250
9518,-19.531250
9519,-17.578125
9520,-17.578125
9521,-15.625000
9522,-15.625000
9523,-13.671875
9524,-9.765625
9525,-13.671875
9526,-9.765625
9527,-9.765625
9528,-9.765625
9529,-3.906250
9530,-7.812500
9531,-3.906250
9532,-3.906250
9533,1.953125
9534,-1.953125
9535,-1.953125
9536,0.000000
9537,-1.953125
9538,-1.953125
9539,-1.953125
9540,-1.953125
9541,-1.953125
9542,0.000000
9543,0.000000
9544,-1.953125
9545,-5.859375
9546,-3.906250
9547,-7.812500
9548,-7.812500
9549,-7.812500
9550,-9.765625
9551,-7.812500
9552,-11.718750
9553,-13.671875
9554,-15.625000
9555,-15.625000
9556,-15.625000
9557,-21.484375
9558,-15.625000
9559,-21.484375
9560,-17.578125
9561,-21.484375
9562,-25.390625
9563,-21.484375
9564,-25.390625
9565,-25.390625
9566,-25.390625
9567,-23.437500
9568,-25.390625
9569,-23.437500
9570,-23.437500
9571,-25.390625
9572,-25.390625
9573,-25.390625
9574,-29.296875
9575,-27.343750
9576,-29.296875
9577,-23.437500
9578,-29.296875
9579,-25.390625
9580,-25.390625
9581,-27.343750
9582,-25.390625
9583,-25.390625
9584,-25.390625
9585,-29.296875
9586,-25.390625
9587,-21.484375
9588,-25.390625
9589,-23.437500
9590,-21.484375
9591,-25.390625
9592,-23.437500
9593,-23.437500
9594,-25.390625
9595,-21.484375
9596,-25.390625
9597,-21.484375
9598,-21.484375
9599,-21.484375
9600,-19.531250
9601,-23.437500
9602,-21.484375
9603,-23.437500
9604,-19.531250
9605,-21.484375
9606,-23.437500
9607,-21.484375
9608,-21.484375
9609,-17.578125
9610,-19.531250
9611,-21.484375
9612,-19.531250
9613,-21.484375
9614,-19.531250
9615,-17.578125
9616,-17.578125
9617,-19.531250
9618,-21.484375
9619,-19.531250
9620,-17.578125
9621,-19.531250
9622,-19.531250
9623,-19.531250
9624,-19.531250
9625,-19.531250
9626,-21.484375
9627,-21.484375
9628,-19.531250
9629,-19.531250
9630,-21.484375
9631,-21.484375
9632,-19.531250
9633,-19.531250
9634,-21.484375
9635,-19.531250
9636,-19.531250
9637,-21.484375
9638,-17.578125
9639,-21.484375
9640,-21.484375
9641,-19.531250
9642,-21.484375
9643,-17.578125
9644,-21.484375
9645,-17.578125
9646,-17.578125
9647,-21.484375
9648,-15.625000
9649,-23.437500
9650,-17.578125
9651,-17.578125
9652,-19.531250
9653,-17.578125
9654,-19.531250
9655,-17.578125
9656,-17.578125
9657,-19.531250
9658,-17.578125
9659,-17.578125
9660,-25.390625
9661,-17.578125
9662,-19.531250
9663,-15.625000
9664,-19.531250
9665,-17.578125
9666,-17.578125
9667,-17.578125
9668,-15.625000
9669,-29.296875
9670,-17.578125
9671,-15.625000
9672,-17.578125
9673,-15.625000
9674,-17.578125
9675,-15.625000
9676,-17.578125
9677,-17.578125
9678,-19.531250
9679,-13.671875
9680,-15.625000
9681,-13.671875
9682,-15.625000
9683,-15.625000
9684,-13.671875
9685,-17.578125
9686,-13.671875
9687,-1.953125
9688,-15.625000
9689,-13.671875
9690,-17.578125
9691,-13.671875
9692,-15.625000
9693,-15.625000
9694,-13.671875
9695,-13.671875
9696,-13.671875
9697,-13.671875
9698,-15.625000
9699,-15.625000
9700,-15.625000
9701,-15.625000
9702,-13.671875
9703,-15.625000
9704,-13.671875
9705,-17.578125
9706,-15.625000
9707,-15.625000
9708,-19.531250
9709,-15.625000
9710,-23.437500
9711,-17.578125
9712,-19.531250
9713,-19.531250
9714,-17.578125
9715,-21.484375
9716,-19.531250
9717,-17.578125
9718,-19.531250
9719,-19.531250
9720,-17.578125
9721,-19.531250
9722,-17.578125
9723,-19.531250
9724,-21.484375
9725,-17.578125
9726,-21.484375
9727,-19.531250
9728,-19.531250
9729,-21.484375
9730,-17.578125
9731,-21.484375
9732,-19.531250
9733,-19.531250
9734,-19.531250
9735,-19.531250
9736,-21.484375
9737,-13.671875
9738,-19.531250
9739,-23.437500
9740,-21.484375
9741,-21.484375
9742,-19.531250
9743,-19.531250
9744,-23.437500
9745,-19.531250
9746,-21.484375
9747,-21.484375
9748,-21.484375
9749,-23.437500
9750,-19.531250
9751,-23.437500
9752,-21.484375
9753,-21.484375
9754,-23.437500
9755,-17.578125
9756,-25.390625
9757,-21.484375
9758,-25.390625
9759,-25.390625
9760,-21.484375
9761,-25.390625
9762,-21.484375
9763,-25.390625
9764,-23.437500
9765,-21.484375
9766,-23.437500
9767,-23.437500
9768,-23.437500
9769,-23.437500
9770,-23.437500
9771,-23.437500
9772,-23.437500
9773,-25.390625
9774,-25.390625
9775,-25.390625
9776,-25.390625
9777,-25.390625
9778,-25.390625
9779,-17.578125
9780,-23.437500
9781,-23.437500
9782,-21.484375
9783,-23.437500
9784,-23.437500
9785,-17.578125
9786,-23.437500
9787,-23.437500
9788,-21.484375
9789,-23.437500
9790,-21.484375
9791,-23.437500
9792,-19.531250
9793,-25.390625
9794,-21.484375
9795,-21.484375
9796,-25.390625
9797,-21.484375
9798,-25.390625
9799,-23.437500
9800,-23.437500
9801,-29.296875
9802,-21.484375
9803,-25.390625
9804,-21.484375
9805,-39.062500
9806,-21.484375
9807,-23.437500
9808,-23.437500
9809,-23.437500
9810,-25.390625
9811,-23.437500
9812,-23.437500
9813,-25.390625
9814,-25.390625
9815,-25.390625
9816,-29.296875
9817,-25.390625
9818,-25.390625
9819,-29.296875
9820,-25.390625
9821,-31.250000
9822,-33.203125
9823,-31.250000
9824,-35.156250
9825,-33.203125
9826,-37.109375
9827,-37.109375
9828,-42.968750
9829,-37.109375
9830,-41.015625
9831,-41.015625
9832,-44.921875
9833,-44.921875
9834,-46.875000
9835,-48.828125
9836,-54.687500
9837,-50.781250
9838,-54.687500
9839,-48.828125
9840,-52.734375
9841,-54.687500
9842,-54.687500
9843,-52.734375
9844,-54.687500
9845,-54.687500
9846,-48.828125
9847,-56.640625
9848,-56.640625
9849,-58.593750
9850,-52.734375
9851,-60.546875
9852,-58.593750
9853,-56.640625
9854,-56.640625
9855,-56.640625
9856,-60.546875
9857,-56.640625
9858,-56.640625
9859,-56.640625
9860,-60.546875
9861,-60.546875
9862,-56.640625
9863,-56.640625
9864,-52.734375
9865,-52.734375
9866,-54.687500
9867,-50.781250
9868,-50.781250
9869,-46.875000
9870,-48.828125
9871,-48.828125
9872,-44.921875
9873,-44.921875
9874,-41.015625
9875,-42.968750
9876,-42.968750
9877,-41.015625
9878,-41.015625
9879,-39.062500
9880,-41.015625
9881,-41.015625
9882,-39.062500
9883,-39.062500
9884,-41.015625
9885,-37.109375
9886,-41.015625
9887,-39.062500
9888,-41.015625
9889,-41.015625
9890,-39.062500
9891,-41.015625
9892,-39.062500
9893,-42.968750
9894,-41.015625
9895,-44.921875
9896,-44.921875
9897,-44.921875
9898,-46.875000
9899,-48.828125
9900,-48.828125
9901,-50.781250
9902,-48.828125
9903,-52.734375
9904,-50.781250
9905,-56.640625
9906,-52.734375
9907,-52.734375
9908,-54.687500
9909,-54.687500
9910,-52.734375
9911,-54.687500
9912,-52.734375
9913,-56.640625
9914,-54.687500
9915,-52.734375
9916,-50.781250
9917,-54.687500
9918,-54.687500
9919,-54.687500
9920,-52.734375
9921,-54.687500
9922,-48.828125
9923,-54.687500
9924,-50.781250
9925,-48.828125
9926,-52.734375
9927,-48.828125
9928,-52.734375
9929,-48.828125
9930,-48.828125
9931,-48.828125
9932,-48.828125
9933,-48.828125
9934,-50.781250
9935,-48.828125
9936,-48.828125
9937,-50.781250
9938,-48.828125
9939,-48.828125
9940,-48.828125
9941,-48.828125
9942,-41.015625
9943,-48.828125
9944,-46.875000
9945,-41.015625
9946,-48.828125
9947,-44.921875
9948,-46.875000
9949,-44.921875
9950,-44.921875
9951,-44.921875
9952,-41.015625
9953,-41.015625
9954,-44.921875
9955,-41.015625
9956,-41.015625
9957,-37.109375
9958,-41.015625
9959,-37.109375
9960,-37.109375
9961,-39.062500
9962,-35.156250
9963,-39.062500
9964,-44.921875
9965,-37.109375
9966,-35.156250
9967,-35.156250
9968,-35.156250
9969,-33.203125
9970,-33.203125
9971,-37.109375
9972,-33.203125
9973,-35.156250
9974,-35.156250
9975,-33.203125
9976,-37.109375
9977,-35.156250
9978,-37.109375
9979,-41.015625
9980,-35.156250
9981,-39.062500
9982,-39.062500
9983,-41.015625
9984,-41.015625
9985,-37.109375
9986,-41.015625
9987,-41.015625
9988,-41.015625
9989,-44.921875
9990,-41.015625
9991,-44.921875
9992,-42.968750
9993,-44.921875
9994,-44.921875
9995,-46.875000
9996,-46.875000
9997,-48.828125
9998,-48.828125
9999,-50.781250
10000,-52.734375
