Channel              :,CH1
Frequency            :,  ?
Period               :,  ?
PK-PK                :,78.13mV
Probe attenuation    :,10X
Voltage per ADC value:,0.122070mV
Time interval        :,400.00000us

index,CH1_Voltage(mV)
1,-54.687500
2,-54.687500
3,-50.781250
4,-54.687500
5,-54.687500
6,-50.781250
7,-56.640625
8,-54.687500
9,-54.687500
10,-52.734375
11,-52.734375
12,-54.687500
13,-52.734375
14,-50.781250
15,-56.640625
16,-52.734375
17,-50.781250
18,-52.734375
19,-52.734375
20,-56.640625
21,-54.687500
22,-52.734375
23,-52.734375
24,-52.734375
25,-56.640625
26,-52.734375
27,-52.734375
28,-54.687500
29,-54.687500
30,-54.687500
31,-54.687500
32,-54.687500
33,-56.640625
34,-52.734375
35,-56.640625
36,-56.640625
37,-54.687500
38,-54.687500
39,-54.687500
40,-54.687500
41,-52.734375
42,-52.734375
43,-54.687500
44,-54.687500
45,-48.828125
46,-54.687500
47,-50.781250
48,-52.734375
49,-52.734375
50,-54.687500
51,-54.687500
52,-54.687500
53,-54.687500
54,-56.640625
55,-52.734375
56,-50.781250
57,-54.687500
58,-50.781250
59,-56.640625
60,-52.734375
61,-54.687500
62,-52.734375
63,-54.687500
64,-54.687500
65,-52.734375
66,-56.640625
67,-52.734375
68,-56.640625
69,-56.640625
70,-52.734375
71,-54.687500
72,-52.734375
73,-56.640625
74,-52.734375
75,-54.687500
76,-46.875000
77,-54.687500
78,-56.640625
79,-52.734375
80,-54.687500
81,-56.640625
82,-54.687500
83,-54.687500
84,-56.640625
85,-52.734375
86,-56.640625
87,-52.734375
88,-56.640625
89,-54.687500
90,-54.687500
91,-54.687500
92,-54.687500
93,-52.734375
94,-50.781250
95,-50.781250
96,-52.734375
97,-52.734375
98,-50.781250
99,-54.687500
100,-52.734375
101,-52.734375
102,-50.781250
103,-52.734375
104,-50.781250
105,-50.781250
106,-54.687500
107,-56.640625
108,-50.781250
109,-54.687500
110,-52.734375
111,-50.781250
112,-52.734375
113,-48.828125
114,-52.734375
115,-50.781250
116,-48.828125
117,-52.734375
118,-54.687500
119,-54.687500
120,-52.734375
121,-52.734375
122,-52.734375
123,-48.828125
124,-56.640625
125,-48.828125
126,-54.687500
127,-52.734375
128,-50.781250
129,-54.687500
130,-52.734375
131,-52.734375
132,-54.687500
133,-48.828125
134,-52.734375
135,-52.734375
136,-52.734375
137,-54.687500
138,-50.781250
139,-52.734375
140,-54.687500
141,-50.781250
142,-54.687500
143,-48.828125
144,-50.781250
145,-52.734375
146,-50.781250
147,-52.734375
148,-50.781250
149,-52.734375
150,-50.781250
151,-52.734375
152,-50.781250
153,-48.828125
154,-52.734375
155,-52.734375
156,-56.640625
157,-46.875000
158,-48.828125
159,-54.687500
160,-48.828125
161,-48.828125
162,-48.828125
163,-50.781250
164,-52.734375
165,-48.828125
166,-52.734375
167,-48.828125
168,-52.734375
169,-50.781250
170,-46.875000
171,-54.687500
172,-50.781250
173,-54.687500
174,-54.687500
175,-48.828125
176,-54.687500
177,-52.734375
178,-50.781250
179,-50.781250
180,-46.875000
181,-52.734375
182,-52.734375
183,-48.828125
184,-50.781250
185,-56.640625
186,-48.828125
187,-52.734375
188,-52.734375
189,-48.828125
190,-52.734375
191,-48.828125
192,-48.828125
193,-52.734375
194,-48.828125
195,-50.781250
196,-48.828125
197,-50.781250
198,-48.828125
199,-48.828125
200,-52.734375
201,-48.828125
202,-54.687500
203,-50.781250
204,-48.828125
205,-56.640625
206,-48.828125
207,-48.828125
208,-50.781250
209,-48.828125
210,-50.781250
211,-48.828125
212,-52.734375
213,-50.781250
214,-48.828125
215,-50.781250
216,-50.781250
217,-48.828125
218,-52.734375
219,-48.828125
220,-48.828125
221,-48.828125
222,-46.875000
223,-52.734375
224,-48.828125
225,-48.828125
226,-48.828125
227,-50.781250
228,-50.781250
229,-48.828125
230,-50.781250
231,-48.828125
232,-48.828125
233,-52.734375
234,-48.828125
235,-48.828125
236,-50.781250
237,-48.828125
238,-48.828125
239,-50.781250
240,-50.781250
241,-50.781250
242,-48.828125
243,-48.828125
244,-48.828125
245,-46.875000
246,-52.734375
247,-48.828125
248,-52.734375
249,-52.734375
250,-48.828125
251,-50.781250
252,-48.828125
253,-48.828125
254,-54.687500
255,-48.828125
256,-50.781250
257,-48.828125
258,-48.828125
259,-48.828125
260,-48.828125
261,-48.828125
262,-48.828125
263,-48.828125
264,-52.734375
265,-48.828125
266,-50.781250
267,-48.828125
268,-48.828125
269,-48.828125
270,-48.828125
271,-50.781250
272,-48.828125
273,-46.875000
274,-66.406250
275,-48.828125
276,-48.828125
277,-48.828125
278,-48.828125
279,-48.828125
280,-48.828125
281,-52.734375
282,-48.828125
283,-50.781250
284,-48.828125
285,-64.453125
286,-48.828125
287,-46.875000
288,-48.828125
289,-50.781250
290,-50.781250
291,-48.828125
292,-52.734375
293,-48.828125
294,-56.640625
295,-48.828125
296,-48.828125
297,-52.734375
298,-48.828125
299,-52.734375
300,-48.828125
301,-48.828125
302,-48.828125
303,-48.828125
304,-48.828125
305,-46.875000
306,-48.828125
307,-46.875000
308,-46.875000
309,-48.828125
310,-48.828125
311,-50.781250
312,-50.781250
313,-48.828125
314,-48.828125
315,-48.828125
316,-48.828125
317,-50.781250
318,-48.828125
319,-48.828125
320,-46.875000
321,-46.875000
322,-48.828125
323,-48.828125
324,-48.828125
325,-50.781250
326,-48.828125
327,-50.781250
328,-46.875000
329,-46.875000
330,-48.828125
331,-48.828125
332,-48.828125
333,-50.781250
334,-48.828125
335,-50.781250
336,-48.828125
337,-48.828125
338,-48.828125
339,-44.921875
340,-48.828125
341,-48.828125
342,-48.828125
343,-52.734375
344,-48.828125
345,-50.781250
346,-50.781250
347,-46.875000
348,-48.828125
349,-46.875000
350,-48.828125
351,-48.828125
352,-48.828125
353,-48.828125
354,-48.828125
355,-48.828125
356,-48.828125
357,-46.875000
358,-48.828125
359,-44.921875
360,-48.828125
361,-52.734375
362,-46.875000
363,-46.875000
364,-46.875000
365,-48.828125
366,-48.828125
367,-44.921875
368,-48.828125
369,-44.921875
370,-46.875000
371,-48.828125
372,-44.921875
373,-48.828125
374,-48.828125
375,-48.828125
376,-48.828125
377,-48.828125
378,-48.828125
379,-48.828125
380,-46.875000
381,-48.828125
382,-46.875000
383,-48.828125
384,-46.875000
385,-46.875000
386,-48.828125
387,-46.875000
388,-46.875000
389,-48.828125
390,-44.921875
391,-50.781250
392,-44.921875
393,-48.828125
394,-46.875000
395,-44.921875
396,-48.828125
397,-46.875000
398,-48.828125
399,-48.828125
400,-44.921875
401,-44.921875
402,-46.875000
403,-48.828125
404,-46.875000
405,-46.875000
406,-48.828125
407,-46.875000
408,-48.828125
409,-44.921875
410,-48.828125
411,-46.875000
412,-48.828125
413,-50.781250
414,-31.250000
415,-48.828125
416,-48.828125
417,-46.875000
418,-50.781250
419,-48.828125
420,-48.828125
421,-48.828125
422,-46.875000
423,-48.828125
424,-46.875000
425,-48.828125
426,-46.875000
427,-46.875000
428,-48.828125
429,-44.921875
430,-48.828125
431,-46.875000
432,-48.828125
433,-48.828125
434,-48.828125
435,-44.921875
436,-48.828125
437,-46.875000
438,-48.828125
439,-48.828125
440,-48.828125
441,-46.875000
442,-48.828125
443,-46.875000
444,-50.781250
445,-46.875000
446,-46.875000
447,-48.828125
448,-46.875000
449,-48.828125
450,-44.921875
451,-48.828125
452,-48.828125
453,-44.921875
454,-41.015625
455,-48.828125
456,-48.828125
457,-48.828125
458,-46.875000
459,-48.828125
460,-48.828125
461,-50.781250
462,-48.828125
463,-46.875000
464,-48.828125
465,-48.828125
466,-48.828125
467,-50.781250
468,-44.921875
469,-46.875000
470,-48.828125
471,-48.828125
472,-52.734375
473,-48.828125
474,-50.781250
475,-48.828125
476,-48.828125
477,-52.734375
478,-46.875000
479,-50.781250
480,-48.828125
481,-52.734375
482,-48.828125
483,-52.734375
484,-50.781250
485,-50.781250
486,-48.828125
487,-54.687500
488,-50.781250
489,-48.828125
490,-50.781250
491,-48.828125
492,-48.828125
493,-48.828125
494,-48.828125
495,-50.781250
496,-48.828125
497,-50.781250
498,-48.828125
499,-48.828125
500,-50.781250
501,-48.828125
502,-52.734375
503,-56.640625
504,-48.828125
505,-52.734375
506,-48.828125
507,-52.734375
508,-48.828125
509,-50.781250
510,-50.781250
511,-54.687500
512,-50.781250
513,-52.734375
514,-52.734375
515,-56.640625
516,-50.781250
517,-50.781250
518,-52.734375
519,-54.687500
520,-54.687500
521,-50.781250
522,-54.687500
523,-54.687500
524,-52.734375
525,-54.687500
526,-50.781250
527,-54.687500
528,-54.687500
529,-52.734375
530,-54.687500
531,-52.734375
532,-56.640625
533,-50.781250
534,-54.687500
535,-54.687500
536,-52.734375
537,-50.781250
538,-52.734375
539,-56.640625
540,-52.734375
541,-52.734375
542,-48.828125
543,-54.687500
544,-56.640625
545,-54.687500
546,-52.734375
547,-52.734375
548,-52.734375
549,-54.687500
550,-54.687500
551,-54.687500
552,-60.546875
553,-56.640625
554,-48.828125
555,-54.687500
556,-50.781250
557,-52.734375
558,-56.640625
559,-50.781250
560,-54.687500
561,-52.734375
562,-54.687500
563,-52.734375
564,-50.781250
565,-56.640625
566,-48.828125
567,-56.640625
568,-52.734375
569,-52.734375
570,-52.734375
571,-48.828125
572,-56.640625
573,-54.687500
574,-54.687500
575,-54.687500
576,-52.734375
577,-54.687500
578,-50.781250
579,-52.734375
580,-56.640625
581,-52.734375
582,-52.734375
583,-52.734375
584,-50.781250
585,-52.734375
586,-52.734375
587,-52.734375
588,-56.640625
589,-48.828125
590,-54.687500
591,-52.734375
592,-66.406250
593,-48.828125
594,-50.781250
595,-50.781250
596,-48.828125
597,-48.828125
598,-50.781250
599,-50.781250
600,-52.734375
601,-58.593750
602,-48.828125
603,-52.734375
604,-50.781250
605,-48.828125
606,-48.828125
607,-48.828125
608,-54.687500
609,-48.828125
610,-46.875000
611,-48.828125
612,-46.875000
613,-52.734375
614,-46.875000
615,-48.828125
616,-48.828125
617,-48.828125
618,-48.828125
619,-52.734375
620,-50.781250
621,-48.828125
622,-46.875000
623,-48.828125
624,-46.875000
625,-50.781250
626,-48.828125
627,-50.781250
628,-46.875000
629,-46.875000
630,-46.875000
631,-50.781250
632,-50.781250
633,-48.828125
634,-48.828125
635,-48.828125
636,-48.828125
637,-44.921875
638,-46.875000
639,-46.875000
640,-41.015625
641,-42.968750
642,-37.109375
643,-39.062500
644,-39.062500
645,-33.203125
646,-35.156250
647,-33.203125
648,-33.203125
649,-33.203125
650,-39.062500
651,-29.296875
652,-25.390625
653,-25.390625
654,-23.437500
655,-21.484375
656,-21.484375
657,-19.531250
658,-21.484375
659,-17.578125
660,-19.531250
661,-19.531250
662,-13.671875
663,-17.578125
664,-15.625000
665,-13.671875
666,-15.625000
667,-13.671875
668,-13.671875
669,-13.671875
670,-13.671875
671,-15.625000
672,-11.718750
673,-15.625000
674,-11.718750
675,-13.671875
676,-13.671875
677,-9.765625
678,-13.671875
679,-11.718750
680,-15.625000
681,-13.671875
682,-13.671875
683,-9.765625
684,-9.765625
685,-9.765625
686,-9.765625
687,-9.765625
688,-9.765625
689,-9.765625
690,-7.812500
691,-9.765625
692,-9.765625
693,-5.859375
694,-9.765625
695,-7.812500
696,-7.812500
697,-9.765625
698,-5.859375
699,-9.765625
700,-5.859375
701,-9.765625
702,-7.812500
703,-5.859375
704,-5.859375
705,-7.812500
706,-3.906250
707,-5.859375
708,-5.859375
709,-7.812500
710,-5.859375
711,-3.906250
712,-5.859375
713,-7.812500
714,-7.812500
715,-9.765625
716,-5.859375
717,-7.812500
718,-7.812500
719,-9.765625
720,-5.859375
721,-7.812500
722,-5.859375
723,-5.859375
724,-7.812500
725,-5.859375
726,-9.765625
727,-9.765625
728,-3.906250
729,-9.765625
730,-7.812500
731,-5.859375
732,-5.859375
733,-7.812500
734,-9.765625
735,-7.812500
736,-7.812500
737,-5.859375
738,-7.812500
739,-7.812500
740,-5.859375
741,-7.812500
742,-7.812500
743,-5.859375
744,-9.765625
745,-7.812500
746,-7.812500
747,-5.859375
748,-5.859375
749,-7.812500
750,-5.859375
751,-7.812500
752,-7.812500
753,5.859375
754,-5.859375
755,-9.765625
756,-7.812500
757,-9.765625
758,-3.906250
759,-7.812500
760,-7.812500
761,-9.765625
762,-9.765625
763,-7.812500
764,-9.765625
765,-5.859375
766,-13.671875
767,-9.765625
768,-7.812500
769,-9.765625
770,-9.765625
771,-9.765625
772,-9.765625
773,-9.765625
774,-13.671875
775,-9.765625
776,-13.671875
777,-9.765625
778,-13.671875
779,-15.625000
780,-13.671875
781,-17.578125
782,-15.625000
783,-13.671875
784,-15.625000
785,-15.625000
786,-17.578125
787,-17.578125
788,-17.578125
789,-17.578125
790,-19.531250
791,-15.625000
792,-19.531250
793,-15.625000
794,-17.578125
795,-19.531250
796,-19.531250
797,-21.484375
798,-19.531250
799,-19.531250
800,-21.484375
801,-19.531250
802,-21.484375
803,-21.484375
804,-25.390625
805,-23.437500
806,-25.390625
807,-27.343750
808,-29.296875
809,-29.296875
810,-31.250000
811,-29.296875
812,-33.203125
813,-33.203125
814,-33.203125
815,-37.109375
816,-35.156250
817,-39.062500
818,-39.062500
819,-39.062500
820,-41.015625
821,-41.015625
822,-41.015625
823,-41.015625
824,-44.921875
825,-44.921875
826,-41.015625
827,-44.921875
828,-56.640625
829,-44.921875
830,-44.921875
831,-44.921875
832,-48.828125
833,-48.828125
834,-48.828125
835,-50.781250
836,-46.875000
837,-50.781250
838,-48.828125
839,-48.828125
840,-50.781250
841,-48.828125
842,-52.734375
843,-48.828125
844,-48.828125
845,-52.734375
846,-48.828125
847,-48.828125
848,-52.734375
849,-50.781250
850,-54.687500
851,-52.734375
852,-54.687500
853,-54.687500
854,-52.734375
855,-52.734375
856,-52.734375
857,-56.640625
858,-54.687500
859,-52.734375
860,-54.687500
861,-54.687500
862,-52.734375
863,-56.640625
864,-50.781250
865,-54.687500
866,-54.687500
867,-50.781250
868,-54.687500
869,-52.734375
870,-54.687500
871,-56.640625
872,-54.687500
873,-52.734375
874,-52.734375
875,-56.640625
876,-52.734375
877,-56.640625
878,-56.640625
879,-52.734375
880,-56.640625
881,-56.640625
882,-52.734375
883,-54.687500
884,-56.640625
885,-56.640625
886,-54.687500
887,-56.640625
888,-56.640625
889,-56.640625
890,-54.687500
891,-60.546875
892,-54.687500
893,-56.640625
894,-54.687500
895,-54.687500
896,-54.687500
897,-52.734375
898,-56.640625
899,-56.640625
900,-54.687500
901,-56.640625
902,-56.640625
903,-54.687500
904,-54.687500
905,-56.640625
906,-56.640625
907,-54.687500
908,-56.640625
909,-54.687500
910,-56.640625
911,-54.687500
912,-56.640625
913,-60.546875
914,-54.687500
915,-56.640625
916,-56.640625
917,-48.828125
918,-56.640625
919,-56.640625
920,-56.640625
921,-56.640625
922,-56.640625
923,-56.640625
924,-54.687500
925,-58.593750
926,-56.640625
927,-52.734375
928,-60.546875
929,-56.640625
930,-58.593750
931,-56.640625
932,-54.687500
933,-56.640625
934,-54.687500
935,-56.640625
936,-56.640625
937,-56.640625
938,-54.687500
939,-56.640625
940,-54.687500
941,-58.593750
942,-56.640625
943,-56.640625
944,-56.640625
945,-56.640625
946,-56.640625
947,-56.640625
948,-54.687500
949,-56.640625
950,-54.687500
951,-56.640625
952,-56.640625
953,-56.640625
954,-60.546875
955,-56.640625
956,-56.640625
957,-56.640625
958,-56.640625
959,-60.546875
960,-56.640625
961,-56.640625
962,-56.640625
963,-56.640625
964,-58.593750
965,-56.640625
966,-56.640625
967,-54.687500
968,-56.640625
969,-56.640625
970,-54.687500
971,-56.640625
972,-56.640625
973,-56.640625
974,-58.593750
975,-70.312500
976,-58.593750
977,-56.640625
978,-56.640625
979,-60.546875
980,-56.640625
981,-56.640625
982,-56.640625
983,-60.546875
984,-54.687500
985,-56.640625
986,-56.640625
987,-56.640625
988,-56.640625
989,-56.640625
990,-56.640625
991,-56.640625
992,-60.546875
993,-56.640625
994,-56.640625
995,-56.640625
996,-56.640625
997,-56.640625
998,-52.734375
999,-56.640625
1000,-56.640625
1001,-54.687500
1002,-56.640625
1003,-54.687500
1004,-56.640625
1005,-56.640625
1006,-52.734375
1007,-56.640625
1008,-56.640625
1009,-60.546875
1010,-56.640625
1011,-56.640625
1012,-60.546875
1013,-56.640625
1014,-58.593750
1015,-56.640625
1016,-56.640625
1017,-56.640625
1018,-56.640625
1019,-56.640625
1020,-56.640625
1021,-56.640625
1022,-56.640625
1023,-56.640625
1024,-56.640625
1025,-56.640625
1026,-56.640625
1027,-56.640625
1028,-56.640625
1029,-60.546875
1030,-60.546875
1031,-56.640625
1032,-56.640625
1033,-72.265625
1034,-56.640625
1035,-56.640625
1036,-54.687500
1037,-56.640625
1038,-56.640625
1039,-56.640625
1040,-60.546875
1041,-56.640625
1042,-54.687500
1043,-56.640625
1044,-56.640625
1045,-58.593750
1046,-56.640625
1047,-56.640625
1048,-56.640625
1049,-56.640625
1050,-56.640625
1051,-52.734375
1052,-56.640625
1053,-56.640625
1054,-56.640625
1055,-56.640625
1056,-56.640625
1057,-56.640625
1058,-56.640625
1059,-56.640625
1060,-56.640625
1061,-56.640625
1062,-56.640625
1063,-56.640625
1064,-56.640625
1065,-56.640625
1066,-56.640625
1067,-56.640625
1068,-56.640625
1069,-56.640625
1070,-56.640625
1071,-56.640625
1072,-56.640625
1073,-56.640625
1074,-56.640625
1075,-56.640625
1076,-56.640625
1077,-56.640625
1078,-58.593750
1079,-56.640625
1080,-56.640625
1081,-56.640625
1082,-48.828125
1083,-56.640625
1084,-54.687500
1085,-60.546875
1086,-56.640625
1087,-54.687500
1088,-56.640625
1089,-56.640625
1090,-56.640625
1091,-50.781250
1092,-56.640625
1093,-58.593750
1094,-54.687500
1095,-54.687500
1096,-58.593750
1097,-54.687500
1098,-56.640625
1099,-54.687500
1100,-52.734375
1101,-56.640625
1102,-54.687500
1103,-56.640625
1104,-56.640625
1105,-54.687500
1106,-56.640625
1107,-52.734375
1108,-56.640625
1109,-54.687500
1110,-56.640625
1111,-54.687500
1112,-52.734375
1113,-41.015625
1114,-52.734375
1115,-54.687500
1116,-56.640625
1117,-52.734375
1118,-56.640625
1119,-54.687500
1120,-54.687500
1121,-54.687500
1122,-54.687500
1123,-56.640625
1124,-56.640625
1125,-54.687500
1126,-56.640625
1127,-54.687500
1128,-54.687500
1129,-56.640625
1130,-56.640625
1131,-56.640625
1132,-54.687500
1133,-56.640625
1134,-54.687500
1135,-54.687500
1136,-56.640625
1137,-52.734375
1138,-56.640625
1139,-52.734375
1140,-56.640625
1141,-56.640625
1142,-54.687500
1143,-54.687500
1144,-54.687500
1145,-50.781250
1146,-54.687500
1147,-52.734375
1148,-54.687500
1149,-54.687500
1150,-52.734375
1151,-56.640625
1152,-54.687500
1153,-48.828125
1154,-54.687500
1155,-52.734375
1156,-52.734375
1157,-50.781250
1158,-54.687500
1159,-52.734375
1160,-52.734375
1161,-56.640625
1162,-54.687500
1163,-54.687500
1164,-52.734375
1165,-54.687500
1166,-54.687500
1167,-50.781250
1168,-54.687500
1169,-52.734375
1170,-56.640625
1171,-54.687500
1172,-48.828125
1173,-54.687500
1174,-48.828125
1175,-54.687500
1176,-56.640625
1177,-52.734375
1178,-56.640625
1179,-54.687500
1180,-52.734375
1181,-52.734375
1182,-54.687500
1183,-50.781250
1184,-56.640625
1185,-54.687500
1186,-50.781250
1187,-52.734375
1188,-48.828125
1189,-56.640625
1190,-50.781250
1191,-56.640625
1192,-52.734375
1193,-50.781250
1194,-48.828125
1195,-54.687500
1196,-50.781250
1197,-50.781250
1198,-52.734375
1199,-50.781250
1200,-52.734375
1201,-48.828125
1202,-54.687500
1203,-54.687500
1204,-52.734375
1205,-52.734375
1206,-50.781250
1207,-54.687500
1208,-48.828125
1209,-52.734375
1210,-50.781250
1211,-50.781250
1212,-52.734375
1213,-48.828125
1214,-52.734375
1215,-48.828125
1216,-48.828125
1217,-54.687500
1218,-48.828125
1219,-48.828125
1220,-48.828125
1221,-56.640625
1222,-50.781250
1223,-48.828125
1224,-54.687500
1225,-52.734375
1226,-50.781250
1227,-50.781250
1228,-48.828125
1229,-50.781250
1230,-48.828125
1231,-52.734375
1232,-52.734375
1233,-48.828125
1234,-44.921875
1235,-50.781250
1236,-50.781250
1237,-50.781250
1238,-56.640625
1239,-50.781250
1240,-52.734375
1241,-48.828125
1242,-52.734375
1243,-48.828125
1244,-48.828125
1245,-48.828125
1246,-52.734375
1247,-52.734375
1248,-50.781250
1249,-54.687500
1250,-52.734375
1251,-52.734375
1252,-52.734375
1253,-48.828125
1254,-48.828125
1255,-50.781250
1256,-48.828125
1257,-52.734375
1258,-54.687500
1259,-48.828125
1260,-54.687500
1261,-52.734375
1262,-50.781250
1263,-52.734375
1264,-48.828125
1265,-52.734375
1266,-50.781250
1267,-50.781250
1268,-52.734375
1269,-48.828125
1270,-52.734375
1271,-50.781250
1272,-54.687500
1273,-50.781250
1274,-54.687500
1275,-54.687500
1276,-52.734375
1277,-52.734375
1278,-52.734375
1279,-54.687500
1280,-52.734375
1281,-48.828125
1282,-48.828125
1283,-54.687500
1284,-52.734375
1285,-56.640625
1286,-52.734375
1287,-52.734375
1288,-56.640625
1289,-50.781250
1290,-54.687500
1291,-56.640625
1292,-52.734375
1293,-50.781250
1294,-50.781250
1295,-54.687500
1296,-54.687500
1297,-52.734375
1298,-54.687500
1299,-48.828125
1300,-54.687500
1301,-52.734375
1302,-50.781250
1303,-52.734375
1304,-52.734375
1305,-54.687500
1306,-54.687500
1307,-54.687500
1308,-54.687500
1309,-48.828125
1310,-54.687500
1311,-50.781250
1312,-52.734375
1313,-54.687500
1314,-54.687500
1315,-56.640625
1316,-52.734375
1317,-56.640625
1318,-56.640625
1319,-54.687500
1320,-54.687500
1321,-56.640625
1322,-52.734375
1323,-56.640625
1324,-56.640625
1325,-54.687500
1326,-56.640625
1327,-54.687500
1328,-54.687500
1329,-48.828125
1330,-54.687500
1331,-60.546875
1332,-54.687500
1333,-56.640625
1334,-52.734375
1335,-54.687500
1336,-52.734375
1337,-50.781250
1338,-54.687500
1339,-54.687500
1340,-44.921875
1341,-52.734375
1342,-50.781250
1343,-56.640625
1344,-54.687500
1345,-54.687500
1346,-56.640625
1347,-54.687500
1348,-56.640625
1349,-54.687500
1350,-54.687500
1351,-56.640625
1352,-50.781250
1353,-54.687500
1354,-52.734375
1355,-52.734375
1356,-54.687500
1357,-52.734375
1358,-54.687500
1359,-50.781250
1360,-54.687500
1361,-52.734375
1362,-52.734375
1363,-56.640625
1364,-48.828125
1365,-56.640625
1366,-52.734375
1367,-48.828125
1368,-54.687500
1369,-52.734375
1370,-54.687500
1371,-64.453125
1372,-52.734375
1373,-54.687500
1374,-48.828125
1375,-54.687500
1376,-48.828125
1377,-54.687500
1378,-54.687500
1379,-56.640625
1380,-48.828125
1381,-54.687500
1382,-54.687500
1383,-52.734375
1384,-50.781250
1385,-46.875000
1386,-54.687500
1387,-50.781250
1388,-44.921875
1389,-52.734375
1390,-52.734375
1391,-52.734375
1392,-50.781250
1393,-52.734375
1394,-48.828125
1395,-50.781250
1396,-50.781250
1397,-48.828125
1398,-52.734375
1399,-48.828125
1400,-60.546875
1401,-50.781250
1402,-48.828125
1403,-52.734375
1404,-48.828125
1405,-52.734375
1406,-48.828125
1407,-56.640625
1408,-50.781250
1409,-52.734375
1410,-52.734375
1411,-48.828125
1412,-54.687500
1413,-48.828125
1414,-52.734375
1415,-52.734375
1416,-48.828125
1417,-50.781250
1418,-48.828125
1419,-52.734375
1420,-56.640625
1421,-48.828125
1422,-54.687500
1423,-48.828125
1424,-54.687500
1425,-52.734375
1426,-48.828125
1427,-54.687500
1428,-48.828125
1429,-54.687500
1430,-50.781250
1431,-52.734375
1432,-54.687500
1433,-52.734375
1434,-48.828125
1435,-52.734375
1436,-50.781250
1437,-48.828125
1438,-52.734375
1439,-48.828125
1440,-52.734375
1441,-48.828125
1442,-48.828125
1443,-52.734375
1444,-46.875000
1445,-52.734375
1446,-48.828125
1447,-48.828125
1448,-50.781250
1449,-48.828125
1450,-48.828125
1451,-48.828125
1452,-48.828125
1453,-50.781250
1454,-48.828125
1455,-50.781250
1456,-48.828125
1457,-50.781250
1458,-48.828125
1459,-48.828125
1460,-50.781250
1461,-50.781250
1462,-50.781250
1463,-50.781250
1464,-48.828125
1465,-54.687500
1466,-50.781250
1467,-50.781250
1468,-50.781250
1469,-48.828125
1470,-52.734375
1471,-48.828125
1472,-50.781250
1473,-48.828125
1474,-48.828125
1475,-50.781250
1476,-48.828125
1477,-52.734375
1478,-52.734375
1479,-50.781250
1480,-52.734375
1481,-48.828125
1482,-50.781250
1483,-48.828125
1484,-48.828125
1485,-50.781250
1486,-48.828125
1487,-48.828125
1488,-48.828125
1489,-48.828125
1490,-52.734375
1491,-48.828125
1492,-48.828125
1493,-50.781250
1494,-48.828125
1495,-48.828125
1496,-46.875000
1497,-52.734375
1498,-48.828125
1499,-48.828125
1500,-50.781250
1501,-52.734375
1502,-54.687500
1503,-50.781250
1504,-50.781250
1505,-52.734375
1506,-48.828125
1507,-48.828125
1508,-52.734375
1509,-48.828125
1510,-52.734375
1511,-48.828125
1512,-48.828125
1513,-50.781250
1514,-48.828125
1515,-50.781250
1516,-50.781250
1517,-52.734375
1518,-48.828125
1519,-48.828125
1520,-52.734375
1521,-48.828125
1522,-52.734375
1523,-54.687500
1524,-52.734375
1525,-50.781250
1526,-50.781250
1527,-48.828125
1528,-52.734375
1529,-48.828125
1530,-52.734375
1531,-50.781250
1532,-52.734375
1533,-50.781250
1534,-52.734375
1535,-52.734375
1536,-52.734375
1537,-52.734375
1538,-48.828125
1539,-52.734375
1540,-50.781250
1541,-54.687500
1542,-50.781250
1543,-54.687500
1544,-48.828125
1545,-54.687500
1546,-50.781250
1547,-50.781250
1548,-52.734375
1549,-48.828125
1550,-54.687500
1551,-50.781250
1552,-52.734375
1553,-54.687500
1554,-48.828125
1555,-54.687500
1556,-52.734375
1557,-54.687500
1558,-52.734375
1559,-50.781250
1560,-56.640625
1561,-50.781250
1562,-52.734375
1563,-52.734375
1564,-52.734375
1565,-56.640625
1566,-52.734375
1567,-54.687500
1568,-54.687500
1569,-54.687500
1570,-56.640625
1571,-54.687500
1572,-56.640625
1573,-54.687500
1574,-54.687500
1575,-56.640625
1576,-56.640625
1577,-54.687500
1578,-56.640625
1579,-56.640625
1580,-56.640625
1581,-54.687500
1582,-56.640625
1583,-54.687500
1584,-56.640625
1585,-56.640625
1586,-54.687500
1587,-54.687500
1588,-58.593750
1589,-54.687500
1590,-56.640625
1591,-54.687500
1592,-54.687500
1593,-56.640625
1594,-60.546875
1595,-56.640625
1596,-56.640625
1597,-56.640625
1598,-60.546875
1599,-56.640625
1600,-56.640625
1601,-56.640625
1602,-56.640625
1603,-56.640625
1604,-54.687500
1605,-56.640625
1606,-56.640625
1607,-56.640625
1608,-56.640625
1609,-56.640625
1610,-56.640625
1611,-56.640625
1612,-56.640625
1613,-56.640625
1614,-56.640625
1615,-56.640625
1616,-56.640625
1617,-56.640625
1618,-56.640625
1619,-54.687500
1620,-56.640625
1621,-56.640625
1622,-56.640625
1623,-58.593750
1624,-56.640625
1625,-60.546875
1626,-54.687500
1627,-56.640625
1628,-56.640625
1629,-56.640625
1630,-58.593750
1631,-56.640625
1632,-56.640625
1633,-56.640625
1634,-56.640625
1635,-60.546875
1636,-56.640625
1637,-56.640625
1638,-56.640625
1639,-54.687500
1640,-56.640625
1641,-56.640625
1642,-56.640625
1643,-60.546875
1644,-54.687500
1645,-54.687500
1646,-56.640625
1647,-56.640625
1648,-56.640625
1649,-56.640625
1650,-56.640625
1651,-56.640625
1652,-54.687500
1653,-56.640625
1654,-52.734375
1655,-52.734375
1656,-56.640625
1657,-54.687500
1658,-70.312500
1659,-52.734375
1660,-56.640625
1661,-52.734375
1662,-56.640625
1663,-56.640625
1664,-54.687500
1665,-56.640625
1666,-54.687500
1667,-56.640625
1668,-56.640625
1669,-56.640625
1670,-56.640625
1671,-54.687500
1672,-56.640625
1673,-54.687500
1674,-56.640625
1675,-56.640625
1676,-54.687500
1677,-60.546875
1678,-56.640625
1679,-56.640625
1680,-56.640625
1681,-54.687500
1682,-56.640625
1683,-56.640625
1684,-56.640625
1685,-56.640625
1686,-56.640625
1687,-54.687500
1688,-56.640625
1689,-56.640625
1690,-56.640625
1691,-56.640625
1692,-56.640625
1693,-56.640625
1694,-58.593750
1695,-56.640625
1696,-44.921875
1697,-56.640625
1698,-54.687500
1699,-56.640625
1700,-52.734375
1701,-56.640625
1702,-52.734375
1703,-60.546875
1704,-56.640625
1705,-52.734375
1706,-56.640625
1707,-54.687500
1708,-56.640625
1709,-56.640625
1710,-56.640625
1711,-56.640625
1712,-54.687500
1713,-56.640625
1714,-54.687500
1715,-56.640625
1716,-54.687500
1717,-56.640625
1718,-54.687500
1719,-58.593750
1720,-56.640625
1721,-56.640625
1722,-56.640625
1723,-56.640625
1724,-56.640625
1725,-54.687500
1726,-56.640625
1727,-64.453125
1728,-52.734375
1729,-56.640625
1730,-56.640625
1731,-60.546875
1732,-56.640625
1733,-54.687500
1734,-66.406250
1735,-56.640625
1736,-60.546875
1737,-54.687500
1738,-56.640625
1739,-56.640625
1740,-56.640625
1741,-56.640625
1742,-56.640625
1743,-56.640625
1744,-54.687500
1745,-56.640625
1746,-54.687500
1747,-56.640625
1748,-56.640625
1749,-56.640625
1750,-56.640625
1751,-56.640625
1752,-56.640625
1753,-54.687500
1754,-56.640625
1755,-54.687500
1756,-52.734375
1757,-56.640625
1758,-54.687500
1759,-56.640625
1760,-56.640625
1761,-52.734375
1762,-60.546875
1763,-54.687500
1764,-56.640625
1765,-52.734375
1766,-54.687500
1767,-56.640625
1768,-54.687500
1769,-58.593750
1770,-52.734375
1771,-56.640625
1772,-56.640625
1773,-56.640625
1774,-56.640625
1775,-56.640625
1776,-52.734375
1777,-56.640625
1778,-56.640625
1779,-58.593750
1780,-56.640625
1781,-56.640625
1782,-56.640625
1783,-56.640625
1784,-56.640625
1785,-56.640625
1786,-56.640625
1787,-56.640625
1788,-54.687500
1789,-56.640625
1790,-56.640625
1791,-56.640625
1792,-56.640625
1793,-56.640625
1794,-56.640625
1795,-56.640625
1796,-56.640625
1797,-56.640625
1798,-56.640625
1799,-60.546875
1800,-56.640625
1801,-54.687500
1802,-56.640625
1803,-54.687500
1804,-56.640625
1805,-56.640625
1806,-56.640625
1807,-56.640625
1808,-56.640625
1809,-54.687500
1810,-56.640625
1811,-54.687500
1812,-56.640625
1813,-56.640625
1814,-56.640625
1815,-56.640625
1816,-56.640625
1817,-56.640625
1818,-56.640625
1819,-56.640625
1820,-56.640625
1821,-54.687500
1822,-56.640625
1823,-54.687500
1824,-56.640625
1825,-56.640625
1826,-56.640625
1827,-56.640625
1828,-56.640625
1829,-56.640625
1830,-56.640625
1831,-56.640625
1832,-56.640625
1833,-56.640625
1834,-54.687500
1835,-56.640625
1836,-54.687500
1837,-52.734375
1838,-56.640625
1839,-52.734375
1840,-50.781250
1841,-56.640625
1842,-52.734375
1843,-56.640625
1844,-52.734375
1845,-54.687500
1846,-52.734375
1847,-52.734375
1848,-54.687500
1849,-54.687500
1850,-48.828125
1851,-52.734375
1852,-48.828125
1853,-52.734375
1854,-50.781250
1855,-48.828125
1856,-48.828125
1857,-48.828125
1858,-48.828125
1859,-48.828125
1860,-48.828125
1861,-50.781250
1862,-46.875000
1863,-48.828125
1864,-48.828125
1865,-46.875000
1866,-46.875000
1867,-44.921875
1868,-48.828125
1869,-46.875000
1870,-48.828125
1871,-52.734375
1872,-48.828125
1873,-46.875000
1874,-46.875000
1875,-48.828125
1876,-44.921875
1877,-46.875000
1878,-46.875000
1879,-46.875000
1880,-48.828125
1881,-46.875000
1882,-48.828125
1883,-46.875000
1884,-48.828125
1885,-48.828125
1886,-48.828125
1887,-46.875000
1888,-48.828125
1889,-46.875000
1890,-46.875000
1891,-50.781250
1892,-48.828125
1893,-46.875000
1894,-48.828125
1895,-41.015625
1896,-48.828125
1897,-44.921875
1898,-48.828125
1899,-46.875000
1900,-44.921875
1901,-50.781250
1902,-44.921875
1903,-48.828125
1904,-48.828125
1905,-41.015625
1906,-44.921875
1907,-44.921875
1908,-48.828125
1909,-44.921875
1910,-48.828125
1911,-46.875000
1912,-46.875000
1913,-46.875000
1914,-46.875000
1915,-44.921875
1916,-48.828125
1917,-44.921875
1918,-46.875000
1919,-46.875000
1920,-48.828125
1921,-46.875000
1922,-44.921875
1923,-46.875000
1924,-46.875000
1925,-46.875000
1926,-48.828125
1927,-44.921875
1928,-48.828125
1929,-44.921875
1930,-46.875000
1931,-46.875000
1932,-44.921875
1933,-46.875000
1934,-48.828125
1935,-44.921875
1936,-48.828125
1937,-46.875000
1938,-46.875000
1939,-44.921875
1940,-44.921875
1941,-48.828125
1942,-46.875000
1943,-46.875000
1944,-48.828125
1945,-48.828125
1946,-48.828125
1947,-48.828125
1948,-44.921875
1949,-46.875000
1950,-44.921875
1951,-44.921875
1952,-44.921875
1953,-44.921875
1954,-50.781250
1955,-44.921875
1956,-44.921875
1957,-48.828125
1958,-44.921875
1959,-44.921875
1960,-46.875000
1961,-46.875000
1962,-44.921875
1963,-48.828125
1964,-44.921875
1965,-46.875000
1966,-46.875000
1967,-46.875000
1968,-46.875000
1969,-48.828125
1970,-44.921875
1971,-48.828125
1972,-48.828125
1973,-46.875000
1974,-46.875000
1975,-44.921875
1976,-44.921875
1977,-46.875000
1978,-48.828125
1979,-48.828125
1980,-44.921875
1981,-44.921875
1982,-46.875000
1983,-44.921875
1984,-48.828125
1985,-44.921875
1986,-44.921875
1987,-46.875000
1988,-44.921875
1989,-46.875000
1990,-46.875000
1991,-44.921875
1992,-46.875000
1993,-44.921875
1994,-44.921875
1995,-48.828125
1996,-46.875000
1997,-46.875000
1998,-46.875000
1999,-46.875000
2000,-46.875000
2001,-44.921875
2002,-46.875000
2003,-48.828125
2004,-44.921875
2005,-46.875000
2006,-44.921875
2007,-44.921875
2008,-46.875000
2009,-46.875000
2010,-48.828125
2011,-41.015625
2012,-44.921875
2013,-44.921875
2014,-44.921875
2015,-44.921875
2016,-44.921875
2017,-48.828125
2018,-44.921875
2019,-48.828125
2020,-46.875000
2021,-44.921875
2022,-46.875000
2023,-44.921875
2024,-48.828125
2025,-46.875000
2026,-46.875000
2027,-44.921875
2028,-44.921875
2029,-48.828125
2030,-46.875000
2031,-46.875000
2032,-46.875000
2033,-46.875000
2034,-44.921875
2035,-48.828125
2036,-44.921875
2037,-48.828125
2038,-46.875000
2039,-46.875000
2040,-46.875000
2041,-44.921875
2042,-46.875000
2043,-52.734375
2044,-44.921875
2045,-46.875000
2046,-46.875000
2047,-48.828125
2048,-48.828125
2049,-44.921875
2050,-46.875000
2051,-46.875000
2052,-52.734375
2053,-46.875000
2054,-46.875000
2055,-46.875000
2056,-46.875000
2057,-46.875000
2058,-44.921875
2059,-46.875000
2060,-48.828125
2061,-48.828125
2062,-48.828125
2063,-46.875000
2064,-46.875000
2065,-50.781250
2066,-46.875000
2067,-46.875000
2068,-50.781250
2069,-48.828125
2070,-50.781250
2071,-46.875000
2072,-48.828125
2073,-48.828125
2074,-46.875000
2075,-54.687500
2076,-46.875000
2077,-48.828125
2078,-41.015625
2079,-44.921875
2080,-52.734375
2081,-48.828125
2082,-48.828125
2083,-48.828125
2084,-50.781250
2085,-48.828125
2086,-46.875000
2087,-48.828125
2088,-48.828125
2089,-48.828125
2090,-48.828125
2091,-52.734375
2092,-39.062500
2093,-50.781250
2094,-46.875000
2095,-48.828125
2096,-50.781250
2097,-48.828125
2098,-48.828125
2099,-46.875000
2100,-48.828125
2101,-50.781250
2102,-48.828125
2103,-50.781250
2104,-48.828125
2105,-48.828125
2106,-48.828125
2107,-48.828125
2108,-48.828125
2109,-46.875000
2110,-46.875000
2111,-50.781250
2112,-46.875000
2113,-50.781250
2114,-48.828125
2115,-48.828125
2116,-48.828125
2117,-48.828125
2118,-50.781250
2119,-54.687500
2120,-48.828125
2121,-48.828125
2122,-48.828125
2123,-48.828125
2124,-48.828125
2125,-46.875000
2126,-48.828125
2127,-48.828125
2128,-33.203125
2129,-50.781250
2130,-46.875000
2131,-48.828125
2132,-48.828125
2133,-46.875000
2134,-48.828125
2135,-46.875000
2136,-48.828125
2137,-48.828125
2138,-44.921875
2139,-48.828125
2140,-46.875000
2141,-52.734375
2142,-46.875000
2143,-44.921875
2144,-44.921875
2145,-46.875000
2146,-44.921875
2147,-44.921875
2148,-44.921875
2149,-41.015625
2150,-44.921875
2151,-41.015625
2152,-44.921875
2153,-41.015625
2154,-41.015625
2155,-42.968750
2156,-41.015625
2157,-41.015625
2158,-39.062500
2159,-41.015625
2160,-39.062500
2161,-41.015625
2162,-41.015625
2163,-37.109375
2164,-41.015625
2165,-41.015625
2166,-41.015625
2167,-41.015625
2168,-39.062500
2169,-41.015625
2170,-41.015625
2171,-37.109375
2172,-39.062500
2173,-37.109375
2174,-39.062500
2175,-39.062500
2176,-39.062500
2177,-41.015625
2178,-37.109375
2179,-39.062500
2180,-41.015625
2181,-37.109375
2182,-41.015625
2183,-39.062500
2184,-39.062500
2185,-37.109375
2186,-39.062500
2187,-39.062500
2188,-39.062500
2189,-39.062500
2190,-44.921875
2191,-41.015625
2192,-37.109375
2193,-39.062500
2194,-41.015625
2195,-39.062500
2196,-41.015625
2197,-39.062500
2198,-39.062500
2199,-41.015625
2200,-39.062500
2201,-41.015625
2202,-39.062500
2203,-41.015625
2204,-37.109375
2205,-39.062500
2206,-37.109375
2207,-41.015625
2208,-37.109375
2209,-35.156250
2210,-39.062500
2211,-39.062500
2212,-39.062500
2213,-33.203125
2214,-37.109375
2215,-35.156250
2216,-39.062500
2217,-37.109375
2218,-33.203125
2219,-39.062500
2220,-33.203125
2221,-46.875000
2222,-35.156250
2223,-35.156250
2224,-35.156250
2225,-33.203125
2226,-35.156250
2227,-33.203125
2228,-33.203125
2229,-31.250000
2230,-33.203125
2231,-33.203125
2232,-31.250000
2233,-31.250000
2234,-31.250000
2235,-29.296875
2236,-29.296875
2237,-31.250000
2238,-29.296875
2239,-29.296875
2240,-29.296875
2241,-25.390625
2242,-29.296875
2243,-25.390625
2244,-29.296875
2245,-27.343750
2246,-29.296875
2247,-27.343750
2248,-31.250000
2249,-25.390625
2250,-27.343750
2251,-27.343750
2252,-25.390625
2253,-25.390625
2254,-25.390625
2255,-25.390625
2256,-23.437500
2257,-25.390625
2258,-23.437500
2259,-25.390625
2260,-25.390625
2261,-7.812500
2262,-25.390625
2263,-23.437500
2264,-25.390625
2265,-25.390625
2266,-23.437500
2267,-25.390625
2268,-23.437500
2269,-25.390625
2270,-23.437500
2271,-29.296875
2272,-25.390625
2273,-21.484375
2274,-25.390625
2275,-21.484375
2276,-21.484375
2277,-25.390625
2278,-21.484375
2279,-23.437500
2280,-21.484375
2281,-23.437500
2282,-23.437500
2283,-19.531250
2284,-21.484375
2285,-21.484375
2286,-19.531250
2287,-21.484375
2288,-19.531250
2289,-19.531250
2290,-19.531250
2291,-17.578125
2292,-17.578125
2293,-17.578125
2294,-13.671875
2295,-17.578125
2296,-13.671875
2297,-13.671875
2298,-13.671875
2299,-9.765625
2300,-13.671875
2301,-13.671875
2302,-13.671875
2303,-9.765625
2304,-13.671875
2305,-11.718750
2306,-11.718750
2307,-9.765625
2308,-9.765625
2309,-9.765625
2310,-13.671875
2311,-9.765625
2312,-9.765625
2313,-9.765625
2314,-9.765625
2315,-13.671875
2316,-13.671875
2317,-9.765625
2318,-13.671875
2319,-15.625000
2320,-13.671875
2321,-13.671875
2322,-15.625000
2323,-17.578125
2324,-13.671875
2325,-17.578125
2326,-15.625000
2327,-15.625000
2328,-17.578125
2329,-13.671875
2330,-17.578125
2331,-15.625000
2332,-17.578125
2333,-19.531250
2334,-17.578125
2335,-17.578125
2336,-21.484375
2337,-15.625000
2338,-21.484375
2339,-19.531250
2340,-19.531250
2341,-17.578125
2342,-17.578125
2343,-21.484375
2344,-19.531250
2345,-19.531250
2346,-19.531250
2347,-21.484375
2348,-21.484375
2349,-21.484375
2350,-19.531250
2351,-21.484375
2352,-19.531250
2353,-21.484375
2354,-21.484375
2355,-23.437500
2356,-21.484375
2357,-19.531250
2358,-21.484375
2359,-19.531250
2360,-21.484375
2361,-23.437500
2362,-23.437500
2363,-23.437500
2364,-23.437500
2365,-21.484375
2366,-21.484375
2367,-27.343750
2368,-25.390625
2369,-25.390625
2370,-23.437500
2371,-25.390625
2372,-23.437500
2373,-25.390625
2374,-25.390625
2375,-23.437500
2376,-25.390625
2377,-23.437500
2378,-29.296875
2379,-25.390625
2380,-25.390625
2381,-27.343750
2382,-23.437500
2383,-29.296875
2384,-25.390625
2385,-25.390625
2386,-29.296875
2387,-25.390625
2388,-29.296875
2389,-31.250000
2390,-29.296875
2391,-33.203125
2392,-33.203125
2393,-35.156250
2394,-35.156250
2395,-33.203125
2396,-39.062500
2397,-39.062500
2398,-39.062500
2399,-44.921875
2400,-41.015625
2401,-41.015625
2402,-44.921875
2403,-41.015625
2404,-48.828125
2405,-44.921875
2406,-48.828125
2407,-44.921875
2408,-46.875000
2409,-44.921875
2410,-48.828125
2411,-50.781250
2412,-44.921875
2413,-50.781250
2414,-48.828125
2415,-54.687500
2416,-50.781250
2417,-48.828125
2418,-56.640625
2419,-48.828125
2420,-54.687500
2421,-50.781250
2422,-52.734375
2423,-56.640625
2424,-54.687500
2425,-56.640625
2426,-48.828125
2427,-54.687500
2428,-56.640625
2429,-52.734375
2430,-54.687500
2431,-54.687500
2432,-56.640625
2433,-52.734375
2434,-56.640625
2435,-54.687500
2436,-56.640625
2437,-54.687500
2438,-52.734375
2439,-56.640625
2440,-54.687500
2441,-54.687500
2442,-54.687500
2443,-54.687500
2444,-54.687500
2445,-54.687500
2446,-56.640625
2447,-56.640625
2448,-56.640625
2449,-56.640625
2450,-56.640625
2451,-56.640625
2452,-56.640625
2453,-52.734375
2454,-54.687500
2455,-56.640625
2456,-52.734375
2457,-58.593750
2458,-54.687500
2459,-56.640625
2460,-54.687500
2461,-54.687500
2462,-54.687500
2463,-52.734375
2464,-56.640625
2465,-56.640625
2466,-58.593750
2467,-56.640625
2468,-52.734375
2469,-56.640625
2470,-56.640625
2471,-54.687500
2472,-56.640625
2473,-54.687500
2474,-54.687500
2475,-54.687500
2476,-54.687500
2477,-56.640625
2478,-56.640625
2479,-54.687500
2480,-56.640625
2481,-56.640625
2482,-56.640625
2483,-56.640625
2484,-52.734375
2485,-56.640625
2486,-56.640625
2487,-56.640625
2488,-54.687500
2489,-60.546875
2490,-56.640625
2491,-56.640625
2492,-56.640625
2493,-54.687500
2494,-52.734375
2495,-52.734375
2496,-54.687500
2497,-56.640625
2498,-56.640625
2499,-54.687500
2500,-56.640625
2501,-56.640625
2502,-56.640625
2503,-56.640625
2504,-52.734375
2505,-56.640625
2506,-60.546875
2507,-56.640625
2508,-54.687500
2509,-52.734375
2510,-56.640625
2511,-54.687500
2512,-56.640625
2513,-54.687500
2514,-54.687500
2515,-56.640625
2516,-54.687500
2517,-56.640625
2518,-58.593750
2519,-54.687500
2520,-56.640625
2521,-56.640625
2522,-56.640625
2523,-56.640625
2524,-54.687500
2525,-54.687500
2526,-58.593750
2527,-54.687500
2528,-60.546875
2529,-52.734375
2530,-56.640625
2531,-54.687500
2532,-54.687500
2533,-56.640625
2534,-54.687500
2535,-56.640625
2536,-58.593750
2537,-54.687500
2538,-56.640625
2539,-56.640625
2540,-54.687500
2541,-58.593750
2542,-54.687500
2543,-54.687500
2544,-54.687500
2545,-56.640625
2546,-54.687500
2547,-56.640625
2548,-54.687500
2549,-54.687500
2550,-52.734375
2551,-56.640625
2552,-50.781250
2553,-56.640625
2554,-50.781250
2555,-52.734375
2556,-56.640625
2557,-56.640625
2558,-56.640625
2559,-56.640625
2560,-54.687500
2561,-56.640625
2562,-56.640625
2563,-54.687500
2564,-52.734375
2565,-54.687500
2566,-54.687500
2567,-56.640625
2568,-52.734375
2569,-56.640625
2570,-54.687500
2571,-56.640625
2572,-56.640625
2573,-56.640625
2574,-56.640625
2575,-54.687500
2576,-56.640625
2577,-56.640625
2578,-50.781250
2579,-56.640625
2580,-52.734375
2581,-54.687500
2582,-60.546875
2583,-54.687500
2584,-56.640625
2585,-54.687500
2586,-52.734375
2587,-56.640625
2588,-54.687500
2589,-56.640625
2590,-56.640625
2591,-54.687500
2592,-56.640625
2593,-54.687500
2594,-54.687500
2595,-56.640625
2596,-52.734375
2597,-56.640625
2598,-52.734375
2599,-54.687500
2600,-56.640625
2601,-52.734375
2602,-48.828125
2603,-54.687500
2604,-56.640625
2605,-56.640625
2606,-54.687500
2607,-56.640625
2608,-54.687500
2609,-56.640625
2610,-54.687500
2611,-54.687500
2612,-56.640625
2613,-54.687500
2614,-56.640625
2615,-54.687500
2616,-52.734375
2617,-54.687500
2618,-54.687500
2619,-54.687500
2620,-56.640625
2621,-54.687500
2622,-56.640625
2623,-56.640625
2624,-54.687500
2625,-56.640625
2626,-56.640625
2627,-56.640625
2628,-54.687500
2629,-54.687500
2630,-56.640625
2631,-54.687500
2632,-56.640625
2633,-56.640625
2634,-54.687500
2635,-56.640625
2636,-56.640625
2637,-56.640625
2638,-54.687500
2639,-56.640625
2640,-56.640625
2641,-56.640625
2642,-54.687500
2643,-56.640625
2644,-52.734375
2645,-56.640625
2646,-54.687500
2647,-54.687500
2648,-54.687500
2649,-52.734375
2650,-56.640625
2651,-54.687500
2652,-52.734375
2653,-56.640625
2654,-52.734375
2655,-54.687500
2656,-48.828125
2657,-64.453125
2658,-54.687500
2659,-54.687500
2660,-54.687500
2661,-52.734375
2662,-56.640625
2663,-52.734375
2664,-54.687500
2665,-54.687500
2666,-56.640625
2667,-56.640625
2668,-54.687500
2669,-56.640625
2670,-54.687500
2671,-56.640625
2672,-56.640625
2673,-52.734375
2674,-56.640625
2675,-56.640625
2676,-56.640625
2677,-56.640625
2678,-50.781250
2679,-60.546875
2680,-54.687500
2681,-56.640625
2682,-56.640625
2683,-56.640625
2684,-56.640625
2685,-58.593750
2686,-56.640625
2687,-56.640625
2688,-54.687500
2689,-54.687500
2690,-56.640625
2691,-54.687500
2692,-54.687500
2693,-50.781250
2694,-52.734375
2695,-52.734375
2696,-48.828125
2697,-50.781250
2698,-50.781250
2699,-48.828125
2700,-50.781250
2701,-48.828125
2702,-48.828125
2703,-46.875000
2704,-48.828125
2705,-46.875000
2706,-31.250000
2707,-46.875000
2708,-46.875000
2709,-48.828125
2710,-48.828125
2711,-48.828125
2712,-46.875000
2713,-46.875000
2714,-46.875000
2715,-48.828125
2716,-46.875000
2717,-48.828125
2718,-48.828125
2719,-44.921875
2720,-46.875000
2721,-48.828125
2722,-44.921875
2723,-46.875000
2724,-46.875000
2725,-48.828125
2726,-48.828125
2727,-46.875000
2728,-46.875000
2729,-46.875000
2730,-48.828125
2731,-46.875000
2732,-46.875000
2733,-50.781250
2734,-44.921875
2735,-48.828125
2736,-48.828125
2737,-48.828125
2738,-48.828125
2739,-46.875000
2740,-48.828125
2741,-48.828125
2742,-48.828125
2743,-44.921875
2744,-46.875000
2745,-46.875000
2746,-44.921875
2747,-46.875000
2748,-50.781250
2749,-44.921875
2750,-46.875000
2751,-46.875000
2752,-44.921875
2753,-48.828125
2754,-46.875000
2755,-41.015625
2756,-46.875000
2757,-48.828125
2758,-48.828125
2759,-44.921875
2760,-46.875000
2761,-48.828125
2762,-46.875000
2763,-48.828125
2764,-46.875000
2765,-46.875000
2766,-48.828125
2767,-48.828125
2768,-46.875000
2769,-44.921875
2770,-48.828125
2771,-44.921875
2772,-48.828125
2773,-48.828125
2774,-48.828125
2775,-48.828125
2776,-44.921875
2777,-48.828125
2778,-48.828125
2779,-46.875000
2780,-48.828125
2781,-46.875000
2782,-44.921875
2783,-48.828125
2784,-46.875000
2785,-48.828125
2786,-46.875000
2787,-46.875000
2788,-48.828125
2789,-46.875000
2790,-48.828125
2791,-46.875000
2792,-48.828125
2793,-48.828125
2794,-44.921875
2795,-41.015625
2796,-48.828125
2797,-44.921875
2798,-48.828125
2799,-48.828125
2800,-50.781250
2801,-48.828125
2802,-46.875000
2803,-46.875000
2804,-44.921875
2805,-48.828125
2806,-48.828125
2807,-46.875000
2808,-46.875000
2809,-46.875000
2810,-46.875000
2811,-46.875000
2812,-48.828125
2813,-48.828125
2814,-48.828125
2815,-48.828125
2816,-54.687500
2817,-48.828125
2818,-48.828125
2819,-46.875000
2820,-48.828125
2821,-46.875000
2822,-46.875000
2823,-50.781250
2824,-46.875000
2825,-48.828125
2826,-48.828125
2827,-46.875000
2828,-50.781250
2829,-44.921875
2830,-48.828125
2831,-48.828125
2832,-54.687500
2833,-48.828125
2834,-44.921875
2835,-50.781250
2836,-48.828125
2837,-48.828125
2838,-48.828125
2839,-50.781250
2840,-48.828125
2841,-50.781250
2842,-48.828125
2843,-48.828125
2844,-56.640625
2845,-46.875000
2846,-48.828125
2847,-48.828125
2848,-48.828125
2849,-48.828125
2850,-46.875000
2851,-48.828125
2852,-46.875000
2853,-46.875000
2854,-48.828125
2855,-46.875000
2856,-50.781250
2857,-46.875000
2858,-48.828125
2859,-48.828125
2860,-48.828125
2861,-50.781250
2862,-48.828125
2863,-48.828125
2864,-46.875000
2865,-48.828125
2866,-50.781250
2867,-48.828125
2868,-48.828125
2869,-46.875000
2870,-50.781250
2871,-50.781250
2872,-46.875000
2873,-48.828125
2874,-50.781250
2875,-48.828125
2876,-52.734375
2877,-48.828125
2878,-48.828125
2879,-50.781250
2880,-54.687500
2881,-50.781250
2882,-48.828125
2883,-48.828125
2884,-50.781250
2885,-48.828125
2886,-50.781250
2887,-50.781250
2888,-48.828125
2889,-50.781250
2890,-48.828125
2891,-48.828125
2892,-50.781250
2893,-44.921875
2894,-48.828125
2895,-48.828125
2896,-48.828125
2897,-50.781250
2898,-48.828125
2899,-50.781250
2900,-48.828125
2901,-48.828125
2902,-54.687500
2903,-48.828125
2904,-48.828125
2905,-54.687500
2906,-48.828125
2907,-50.781250
2908,-48.828125
2909,-50.781250
2910,-48.828125
2911,-52.734375
2912,-48.828125
2913,-50.781250
2914,-52.734375
2915,-46.875000
2916,-52.734375
2917,-48.828125
2918,-48.828125
2919,-50.781250
2920,-44.921875
2921,-50.781250
2922,-46.875000
2923,-50.781250
2924,-37.109375
2925,-48.828125
2926,-50.781250
2927,-48.828125
2928,-50.781250
2929,-52.734375
2930,-48.828125
2931,-50.781250
2932,-52.734375
2933,-54.687500
2934,-48.828125
2935,-52.734375
2936,-48.828125
2937,-50.781250
2938,-48.828125
2939,-50.781250
2940,-56.640625
2941,-48.828125
2942,-56.640625
2943,-48.828125
2944,-50.781250
2945,-48.828125
2946,-50.781250
2947,-50.781250
2948,-50.781250
2949,-48.828125
2950,-48.828125
2951,-50.781250
2952,-48.828125
2953,-50.781250
2954,-46.875000
2955,-52.734375
2956,-50.781250
2957,-48.828125
2958,-50.781250
2959,-44.921875
2960,-50.781250
2961,-48.828125
2962,-48.828125
2963,-48.828125
2964,-48.828125
2965,-50.781250
2966,-48.828125
2967,-48.828125
2968,-48.828125
2969,-46.875000
2970,-48.828125
2971,-50.781250
2972,-48.828125
2973,-41.015625
2974,-48.828125
2975,-48.828125
2976,-48.828125
2977,-46.875000
2978,-52.734375
2979,-44.921875
2980,-48.828125
2981,-48.828125
2982,-46.875000
2983,-48.828125
2984,-44.921875
2985,-46.875000
2986,-48.828125
2987,-46.875000
2988,-48.828125
2989,-44.921875
2990,-48.828125
2991,-48.828125
2992,-44.921875
2993,-44.921875
2994,-44.921875
2995,-44.921875
2996,-48.828125
2997,-46.875000
2998,-44.921875
2999,-46.875000
3000,-46.875000
3001,-46.875000
3002,-46.875000
3003,-44.921875
3004,-42.968750
3005,-44.921875
3006,-48.828125
3007,-48.828125
3008,-46.875000
3009,-46.875000
3010,-44.921875
3011,-46.875000
3012,-48.828125
3013,-44.921875
3014,-48.828125
3015,-48.828125
3016,-44.921875
3017,-48.828125
3018,-44.921875
3019,-46.875000
3020,-44.921875
3021,-48.828125
3022,-50.781250
3023,-44.921875
3024,-46.875000
3025,-44.921875
3026,-48.828125
3027,-48.828125
3028,-46.875000
3029,-48.828125
3030,-46.875000
3031,-44.921875
3032,-46.875000
3033,-44.921875
3034,-46.875000
3035,-46.875000
3036,-44.921875
3037,-46.875000
3038,-48.828125
3039,-46.875000
3040,-46.875000
3041,-44.921875
3042,-46.875000
3043,-48.828125
3044,-44.921875
3045,-44.921875
3046,-44.921875
3047,-48.828125
3048,-44.921875
3049,-44.921875
3050,-46.875000
3051,-44.921875
3052,-41.015625
3053,-41.015625
3054,-41.015625
3055,-44.921875
3056,-44.921875
3057,-46.875000
3058,-44.921875
3059,-39.062500
3060,-42.968750
3061,-42.968750
3062,-39.062500
3063,-39.062500
3064,-41.015625
3065,-41.015625
3066,-39.062500
3067,-39.062500
3068,-37.109375
3069,-35.156250
3070,-37.109375
3071,-31.250000
3072,-35.156250
3073,-35.156250
3074,-33.203125
3075,-35.156250
3076,-31.250000
3077,-37.109375
3078,-35.156250
3079,-33.203125
3080,-33.203125
3081,-33.203125
3082,-33.203125
3083,-33.203125
3084,-25.390625
3085,-33.203125
3086,-33.203125
3087,-33.203125
3088,-31.250000
3089,-33.203125
3090,-33.203125
3091,-29.296875
3092,-33.203125
3093,-41.015625
3094,-33.203125
3095,-31.250000
3096,-33.203125
3097,-31.250000
3098,-31.250000
3099,-33.203125
3100,-35.156250
3101,-31.250000
3102,-33.203125
3103,-13.671875
3104,-31.250000
3105,-33.203125
3106,-33.203125
3107,-33.203125
3108,-33.203125
3109,-29.296875
3110,-33.203125
3111,-35.156250
3112,-33.203125
3113,-33.203125
3114,-33.203125
3115,-35.156250
3116,-33.203125
3117,-35.156250
3118,-35.156250
3119,-37.109375
3120,-33.203125
3121,-35.156250
3122,-37.109375
3123,-39.062500
3124,-33.203125
3125,-39.062500
3126,-41.015625
3127,-39.062500
3128,-41.015625
3129,-41.015625
3130,-44.921875
3131,-41.015625
3132,-41.015625
3133,-50.781250
3134,-42.968750
3135,-44.921875
3136,-44.921875
3137,-44.921875
3138,-46.875000
3139,-44.921875
3140,-46.875000
3141,-48.828125
3142,-44.921875
3143,-46.875000
3144,-44.921875
3145,-46.875000
3146,-48.828125
3147,-44.921875
3148,-48.828125
3149,-48.828125
3150,-48.828125
3151,-44.921875
3152,-46.875000
3153,-48.828125
3154,-48.828125
3155,-48.828125
3156,-48.828125
3157,-50.781250
3158,-52.734375
3159,-50.781250
3160,-50.781250
3161,-50.781250
3162,-52.734375
3163,-56.640625
3164,-44.921875
3165,-52.734375
3166,-48.828125
3167,-54.687500
3168,-52.734375
3169,-48.828125
3170,-56.640625
3171,-50.781250
3172,-54.687500
3173,-56.640625
3174,-52.734375
3175,-56.640625
3176,-52.734375
3177,-56.640625
3178,-54.687500
3179,-54.687500
3180,-56.640625
3181,-52.734375
3182,-56.640625
3183,-56.640625
3184,-56.640625
3185,-56.640625
3186,-54.687500
3187,-54.687500
3188,-56.640625
3189,-56.640625
3190,-54.687500
3191,-56.640625
3192,-56.640625
3193,-56.640625
3194,-56.640625
3195,-64.453125
3196,-54.687500
3197,-54.687500
3198,-52.734375
3199,-56.640625
3200,-54.687500
3201,-54.687500
3202,-56.640625
3203,-54.687500
3204,-52.734375
3205,-56.640625
3206,-52.734375
3207,-56.640625
3208,-52.734375
3209,-56.640625
3210,-56.640625
3211,-56.640625
3212,-58.593750
3213,-56.640625
3214,-56.640625
3215,-56.640625
3216,-56.640625
3217,-56.640625
3218,-54.687500
3219,-54.687500
3220,-56.640625
3221,-54.687500
3222,-56.640625
3223,-56.640625
3224,-54.687500
3225,-56.640625
3226,-56.640625
3227,-56.640625
3228,-54.687500
3229,-52.734375
3230,-56.640625
3231,-60.546875
3232,-56.640625
3233,-56.640625
3234,-56.640625
3235,-54.687500
3236,-56.640625
3237,-54.687500
3238,-62.500000
3239,-56.640625
3240,-56.640625
3241,-56.640625
3242,-54.687500
3243,-56.640625
3244,-56.640625
3245,-56.640625
3246,-56.640625
3247,-56.640625
3248,-56.640625
3249,-56.640625
3250,-56.640625
3251,-56.640625
3252,-56.640625
3253,-56.640625
3254,-56.640625
3255,-56.640625
3256,-56.640625
3257,-56.640625
3258,-56.640625
3259,-56.640625
3260,-60.546875
3261,-56.640625
3262,-56.640625
3263,-56.640625
3264,-54.687500
3265,-56.640625
3266,-60.546875
3267,-56.640625
3268,-60.546875
3269,-56.640625
3270,-56.640625
3271,-60.546875
3272,-56.640625
3273,-58.593750
3274,-56.640625
3275,-56.640625
3276,-56.640625
3277,-56.640625
3278,-58.593750
3279,-56.640625
3280,-60.546875
3281,-60.546875
3282,-56.640625
3283,-56.640625
3284,-56.640625
3285,-56.640625
3286,-58.593750
3287,-56.640625
3288,-60.546875
3289,-58.593750
3290,-54.687500
3291,-56.640625
3292,-56.640625
3293,-56.640625
3294,-56.640625
3295,-56.640625
3296,-60.546875
3297,-56.640625
3298,-56.640625
3299,-56.640625
3300,-56.640625
3301,-56.640625
3302,-56.640625
3303,-56.640625
3304,-56.640625
3305,-56.640625
3306,-54.687500
3307,-56.640625
3308,-56.640625
3309,-56.640625
3310,-56.640625
3311,-56.640625
3312,-60.546875
3313,-56.640625
3314,-56.640625
3315,-56.640625
3316,-56.640625
3317,-58.593750
3318,-54.687500
3319,-60.546875
3320,-56.640625
3321,-56.640625
3322,-60.546875
3323,-56.640625
3324,-60.546875
3325,-60.546875
3326,-56.640625
3327,-56.640625
3328,-60.546875
3329,-56.640625
3330,-60.546875
3331,-56.640625
3332,-58.593750
3333,-54.687500
3334,-56.640625
3335,-60.546875
3336,-56.640625
3337,-56.640625
3338,-56.640625
3339,-56.640625
3340,-56.640625
3341,-56.640625
3342,-56.640625
3343,-60.546875
3344,-56.640625
3345,-56.640625
3346,-58.593750
3347,-56.640625
3348,-60.546875
3349,-54.687500
3350,-56.640625
3351,-62.500000
3352,-52.734375
3353,-60.546875
3354,-54.687500
3355,-56.640625
3356,-56.640625
3357,-54.687500
3358,-58.593750
3359,-56.640625
3360,-60.546875
3361,-56.640625
3362,-56.640625
3363,-56.640625
3364,-56.640625
3365,-54.687500
3366,-60.546875
3367,-54.687500
3368,-58.593750
3369,-56.640625
3370,-56.640625
3371,-56.640625
3372,-56.640625
3373,-64.453125
3374,-56.640625
3375,-54.687500
3376,-60.546875
3377,-56.640625
3378,-58.593750
3379,-56.640625
3380,-54.687500
3381,-56.640625
3382,-56.640625
3383,-54.687500
3384,-56.640625
3385,-52.734375
3386,-60.546875
3387,-56.640625
3388,-56.640625
3389,-56.640625
3390,-56.640625
3391,-54.687500
3392,-56.640625
3393,-56.640625
3394,-58.593750
3395,-56.640625
3396,-56.640625
3397,-56.640625
3398,-54.687500
3399,-56.640625
3400,-56.640625
3401,-56.640625
3402,-54.687500
3403,-56.640625
3404,-56.640625
3405,-56.640625
3406,-56.640625
3407,-56.640625
3408,-56.640625
3409,-60.546875
3410,-52.734375
3411,-56.640625
3412,-58.593750
3413,-64.453125
3414,-56.640625
3415,-52.734375
3416,-60.546875
3417,-60.546875
3418,-54.687500
3419,-60.546875
3420,-50.781250
3421,-56.640625
3422,-56.640625
3423,-52.734375
3424,-60.546875
3425,-52.734375
3426,-56.640625
3427,-60.546875
3428,-56.640625
3429,-56.640625
3430,-48.828125
3431,-56.640625
3432,-56.640625
3433,-52.734375
3434,-54.687500
3435,-56.640625
3436,-56.640625
3437,-56.640625
3438,-56.640625
3439,-54.687500
3440,-60.546875
3441,-54.687500
3442,-56.640625
3443,-56.640625
3444,-56.640625
3445,-56.640625
3446,-56.640625
3447,-54.687500
3448,-56.640625
3449,-54.687500
3450,-52.734375
3451,-56.640625
3452,-54.687500
3453,-56.640625
3454,-54.687500
3455,-54.687500
3456,-56.640625
3457,-54.687500
3458,-56.640625
3459,-52.734375
3460,-54.687500
3461,-56.640625
3462,-41.015625
3463,-56.640625
3464,-56.640625
3465,-54.687500
3466,-56.640625
3467,-56.640625
3468,-56.640625
3469,-54.687500
3470,-56.640625
3471,-52.734375
3472,-54.687500
3473,-52.734375
3474,-56.640625
3475,-56.640625
3476,-56.640625
3477,-54.687500
3478,-56.640625
3479,-56.640625
3480,-50.781250
3481,-56.640625
3482,-52.734375
3483,-56.640625
3484,-56.640625
3485,-56.640625
3486,-54.687500
3487,-54.687500
3488,-56.640625
3489,-48.828125
3490,-54.687500
3491,-54.687500
3492,-56.640625
3493,-54.687500
3494,-54.687500
3495,-54.687500
3496,-54.687500
3497,-56.640625
3498,-52.734375
3499,-54.687500
3500,-54.687500
3501,-54.687500
3502,-64.453125
3503,-52.734375
3504,-56.640625
3505,-56.640625
3506,-54.687500
3507,-56.640625
3508,-52.734375
3509,-56.640625
3510,-54.687500
3511,-44.921875
3512,-56.640625
3513,-52.734375
3514,-56.640625
3515,-54.687500
3516,-54.687500
3517,-52.734375
3518,-56.640625
3519,-56.640625
3520,-56.640625
3521,-52.734375
3522,-54.687500
3523,-54.687500
3524,-54.687500
3525,-54.687500
3526,-52.734375
3527,-56.640625
3528,-52.734375
3529,-56.640625
3530,-52.734375
3531,-54.687500
3532,-56.640625
3533,-54.687500
3534,-54.687500
3535,-56.640625
3536,-52.734375
3537,-56.640625
3538,-60.546875
3539,-56.640625
3540,-56.640625
3541,-54.687500
3542,-54.687500
3543,-58.593750
3544,-52.734375
3545,-50.781250
3546,-54.687500
3547,-54.687500
3548,-56.640625
3549,-52.734375
3550,-56.640625
3551,-66.406250
3552,-56.640625
3553,-54.687500
3554,-52.734375
3555,-54.687500
3556,-52.734375
3557,-56.640625
3558,-54.687500
3559,-50.781250
3560,-56.640625
3561,-56.640625
3562,-56.640625
3563,-56.640625
3564,-56.640625
3565,-56.640625
3566,-56.640625
3567,-52.734375
3568,-56.640625
3569,-50.781250
3570,-56.640625
3571,-50.781250
3572,-54.687500
3573,-56.640625
3574,-52.734375
3575,-54.687500
3576,-56.640625
3577,-54.687500
3578,-56.640625
3579,-54.687500
3580,-56.640625
3581,-56.640625
3582,-54.687500
3583,-54.687500
3584,-54.687500
3585,-54.687500
3586,-56.640625
3587,-52.734375
3588,-56.640625
3589,-56.640625
3590,-52.734375
3591,-56.640625
3592,-52.734375
3593,-54.687500
3594,-56.640625
3595,-54.687500
3596,-54.687500
3597,-52.734375
3598,-54.687500
3599,-54.687500
3600,-56.640625
3601,-54.687500
3602,-54.687500
3603,-56.640625
3604,-54.687500
3605,-54.687500
3606,-54.687500
3607,-52.734375
3608,-54.687500
3609,-56.640625
3610,-54.687500
3611,-54.687500
3612,-56.640625
3613,-52.734375
3614,-56.640625
3615,-56.640625
3616,-54.687500
3617,-54.687500
3618,-48.828125
3619,-54.687500
3620,-54.687500
3621,-56.640625
3622,-56.640625
3623,-52.734375
3624,-56.640625
3625,-54.687500
3626,-56.640625
3627,-56.640625
3628,-52.734375
3629,-54.687500
3630,-56.640625
3631,-54.687500
3632,-56.640625
3633,-52.734375
3634,-52.734375
3635,-56.640625
3636,-52.734375
3637,-56.640625
3638,-54.687500
3639,-54.687500
3640,-56.640625
3641,-54.687500
3642,-56.640625
3643,-52.734375
3644,-54.687500
3645,-56.640625
3646,-54.687500
3647,-54.687500
3648,-54.687500
3649,-44.921875
3650,-54.687500
3651,-54.687500
3652,-54.687500
3653,-54.687500
3654,-52.734375
3655,-56.640625
3656,-52.734375
3657,-52.734375
3658,-56.640625
3659,-52.734375
3660,-54.687500
3661,-52.734375
3662,-54.687500
3663,-54.687500
3664,-56.640625
3665,-54.687500
3666,-54.687500
3667,-56.640625
3668,-52.734375
3669,-56.640625
3670,-52.734375
3671,-54.687500
3672,-56.640625
3673,-50.781250
3674,-56.640625
3675,-54.687500
3676,-52.734375
3677,-54.687500
3678,-48.828125
3679,-56.640625
3680,-52.734375
3681,-54.687500
3682,-54.687500
3683,-54.687500
3684,-54.687500
3685,-56.640625
3686,-54.687500
3687,-52.734375
3688,-54.687500
3689,-52.734375
3690,-56.640625
3691,-54.687500
3692,-50.781250
3693,-54.687500
3694,-52.734375
3695,-52.734375
3696,-54.687500
3697,-50.781250
3698,-54.687500
3699,-52.734375
3700,-54.687500
3701,-54.687500
3702,-54.687500
3703,-54.687500
3704,-54.687500
3705,-54.687500
3706,-54.687500
3707,-44.921875
3708,-52.734375
3709,-54.687500
3710,-50.781250
3711,-54.687500
3712,-52.734375
3713,-54.687500
3714,-48.828125
3715,-52.734375
3716,-56.640625
3717,-50.781250
3718,-56.640625
3719,-54.687500
3720,-48.828125
3721,-54.687500
3722,-50.781250
3723,-54.687500
3724,-54.687500
3725,-54.687500
3726,-54.687500
3727,-54.687500
3728,-56.640625
3729,-54.687500
3730,-48.828125
3731,-56.640625
3732,-54.687500
3733,-52.734375
3734,-56.640625
3735,-54.687500
3736,-56.640625
3737,-50.781250
3738,-52.734375
3739,-56.640625
3740,-52.734375
3741,-54.687500
3742,-52.734375
3743,-56.640625
3744,-52.734375
3745,-54.687500
3746,-54.687500
3747,-41.015625
3748,-54.687500
3749,-56.640625
3750,-56.640625
3751,-52.734375
3752,-56.640625
3753,-54.687500
3754,-54.687500
3755,-54.687500
3756,-56.640625
3757,-56.640625
3758,-54.687500
3759,-56.640625
3760,-54.687500
3761,-52.734375
3762,-54.687500
3763,-54.687500
3764,-56.640625
3765,-54.687500
3766,-56.640625
3767,-56.640625
3768,-54.687500
3769,-54.687500
3770,-56.640625
3771,-54.687500
3772,-54.687500
3773,-56.640625
3774,-52.734375
3775,-60.546875
3776,-56.640625
3777,-56.640625
3778,-56.640625
3779,-52.734375
3780,-56.640625
3781,-54.687500
3782,-56.640625
3783,-62.500000
3784,-56.640625
3785,-56.640625
3786,-56.640625
3787,-56.640625
3788,-56.640625
3789,-54.687500
3790,-56.640625
3791,-56.640625
3792,-56.640625
3793,-56.640625
3794,-52.734375
3795,-56.640625
3796,-48.828125
3797,-54.687500
3798,-56.640625
3799,-56.640625
3800,-52.734375
3801,-56.640625
3802,-54.687500
3803,-56.640625
3804,-54.687500
3805,-56.640625
3806,-52.734375
3807,-54.687500
3808,-56.640625
3809,-54.687500
3810,-54.687500
3811,-56.640625
3812,-52.734375
3813,-56.640625
3814,-60.546875
3815,-56.640625
3816,-56.640625
3817,-52.734375
3818,-56.640625
3819,-54.687500
3820,-52.734375
3821,-56.640625
3822,-56.640625
3823,-52.734375
3824,-54.687500
3825,-58.593750
3826,-60.546875
3827,-50.781250
3828,-56.640625
3829,-56.640625
3830,-52.734375
3831,-56.640625
3832,-54.687500
3833,-56.640625
3834,-56.640625
3835,-56.640625
3836,-56.640625
3837,-52.734375
3838,-50.781250
3839,-60.546875
3840,-52.734375
3841,-54.687500
3842,-54.687500
3843,-54.687500
3844,-56.640625
3845,-56.640625
3846,-56.640625
3847,-52.734375
3848,-52.734375
3849,-54.687500
3850,-50.781250
3851,-56.640625
3852,-54.687500
3853,-60.546875
3854,-56.640625
3855,-54.687500
3856,-52.734375
3857,-54.687500
3858,-54.687500
3859,-54.687500
3860,-54.687500
3861,-54.687500
3862,-56.640625
3863,-56.640625
3864,-56.640625
3865,-54.687500
3866,-54.687500
3867,-54.687500
3868,-48.828125
3869,-56.640625
3870,-50.781250
3871,-56.640625
3872,-56.640625
3873,-52.734375
3874,-56.640625
3875,-52.734375
3876,-60.546875
3877,-54.687500
3878,-52.734375
3879,-56.640625
3880,-52.734375
3881,-48.828125
3882,-52.734375
3883,-48.828125
3884,-50.781250
3885,-39.062500
3886,-44.921875
3887,-44.921875
3888,-41.015625
3889,-39.062500
3890,-37.109375
3891,-33.203125
3892,-35.156250
3893,-33.203125
3894,-23.437500
3895,-29.296875
3896,-25.390625
3897,-25.390625
3898,-23.437500
3899,-21.484375
3900,-19.531250
3901,-17.578125
3902,-17.578125
3903,-21.484375
3904,-13.671875
3905,-17.578125
3906,-13.671875
3907,-13.671875
3908,-13.671875
3909,-13.671875
3910,-13.671875
3911,-9.765625
3912,-9.765625
3913,-9.765625
3914,-9.765625
3915,-9.765625
3916,-9.765625
3917,-9.765625
3918,-7.812500
3919,-9.765625
3920,-7.812500
3921,-5.859375
3922,-9.765625
3923,-7.812500
3924,-9.765625
3925,-3.906250
3926,-7.812500
3927,-9.765625
3928,-5.859375
3929,-9.765625
3930,-7.812500
3931,-3.906250
3932,-9.765625
3933,-9.765625
3934,-5.859375
3935,-9.765625
3936,-9.765625
3937,-9.765625
3938,-9.765625
3939,-9.765625
3940,-9.765625
3941,-9.765625
3942,-9.765625
3943,-9.765625
3944,-9.765625
3945,-9.765625
3946,-9.765625
3947,-9.765625
3948,-9.765625
3949,-9.765625
3950,-9.765625
3951,-13.671875
3952,-9.765625
3953,-9.765625
3954,-13.671875
3955,-9.765625
3956,-23.437500
3957,-11.718750
3958,-9.765625
3959,-9.765625
3960,-9.765625
3961,-15.625000
3962,-9.765625
3963,-9.765625
3964,-13.671875
3965,-9.765625
3966,-9.765625
3967,-9.765625
3968,-13.671875
3969,-13.671875
3970,-13.671875
3971,-9.765625
3972,-13.671875
3973,-15.625000
3974,-17.578125
3975,-13.671875
3976,-15.625000
3977,-13.671875
3978,-15.625000
3979,-3.906250
3980,-13.671875
3981,-17.578125
3982,-17.578125
3983,-17.578125
3984,-21.484375
3985,-17.578125
3986,-23.437500
3987,-19.531250
3988,-21.484375
3989,-21.484375
3990,-19.531250
3991,-23.437500
3992,-19.531250
3993,-19.531250
3994,-21.484375
3995,-21.484375
3996,-17.578125
3997,-21.484375
3998,-21.484375
3999,-21.484375
4000,-21.484375
4001,-19.531250
4002,-19.531250
4003,-19.531250
4004,-21.484375
4005,-21.484375
4006,-21.484375
4007,-23.437500
4008,-19.531250
4009,-23.437500
4010,-21.484375
4011,-21.484375
4012,-25.390625
4013,-21.484375
4014,-23.437500
4015,-21.484375
4016,-21.484375
4017,-23.437500
4018,-21.484375
4019,-21.484375
4020,-23.437500
4021,-23.437500
4022,-25.390625
4023,-29.296875
4024,-25.390625
4025,-25.390625
4026,-23.437500
4027,-23.437500
4028,-23.437500
4029,-25.390625
4030,-27.343750
4031,-21.484375
4032,-25.390625
4033,-21.484375
4034,-21.484375
4035,-21.484375
4036,-27.343750
4037,-23.437500
4038,-23.437500
4039,-21.484375
4040,-23.437500
4041,-23.437500
4042,-19.531250
4043,-21.484375
4044,-19.531250
4045,-23.437500
4046,-23.437500
4047,-19.531250
4048,-23.437500
4049,-19.531250
4050,-23.437500
4051,-19.531250
4052,-21.484375
4053,-25.390625
4054,-23.437500
4055,-25.390625
4056,-21.484375
4057,-21.484375
4058,-25.390625
4059,-25.390625
4060,-25.390625
4061,-25.390625
4062,-33.203125
4063,-29.296875
4064,-23.437500
4065,-25.390625
4066,-25.390625
4067,-29.296875
4068,-29.296875
4069,-27.343750
4070,-29.296875
4071,-29.296875
4072,-25.390625
4073,-31.250000
4074,-31.250000
4075,-29.296875
4076,-33.203125
4077,-33.203125
4078,-35.156250
4079,-35.156250
4080,-35.156250
4081,-37.109375
4082,-37.109375
4083,-41.015625
4084,-39.062500
4085,-44.921875
4086,-42.968750
4087,-41.015625
4088,-44.921875
4089,-44.921875
4090,-44.921875
4091,-46.875000
4092,-48.828125
4093,-48.828125
4094,-48.828125
4095,-44.921875
4096,-50.781250
4097,-48.828125
4098,-48.828125
4099,-50.781250
4100,-48.828125
4101,-50.781250
4102,-50.781250
4103,-48.828125
4104,-54.687500
4105,-33.203125
4106,-54.687500
4107,-52.734375
4108,-54.687500
4109,-54.687500
4110,-52.734375
4111,-56.640625
4112,-56.640625
4113,-54.687500
4114,-56.640625
4115,-54.687500
4116,-56.640625
4117,-56.640625
4118,-39.062500
4119,-56.640625
4120,-54.687500
4121,-60.546875
4122,-56.640625
4123,-56.640625
4124,-56.640625
4125,-56.640625
4126,-58.593750
4127,-56.640625
4128,-56.640625
4129,-56.640625
4130,-54.687500
4131,-56.640625
4132,-56.640625
4133,-56.640625
4134,-56.640625
4135,-54.687500
4136,-56.640625
4137,-56.640625
4138,-56.640625
4139,-56.640625
4140,-56.640625
4141,-56.640625
4142,-56.640625
4143,-52.734375
4144,-56.640625
4145,-56.640625
4146,-52.734375
4147,-56.640625
4148,-56.640625
4149,-56.640625
4150,-56.640625
4151,-54.687500
4152,-56.640625
4153,-56.640625
4154,-56.640625
4155,-56.640625
4156,-56.640625
4157,-60.546875
4158,-56.640625
4159,-56.640625
4160,-54.687500
4161,-56.640625
4162,-56.640625
4163,-54.687500
4164,-56.640625
4165,-54.687500
4166,-56.640625
4167,-60.546875
4168,-56.640625
4169,-56.640625
4170,-56.640625
4171,-56.640625
4172,-58.593750
4173,-56.640625
4174,-56.640625
4175,-56.640625
4176,-56.640625
4177,-56.640625
4178,-56.640625
4179,-56.640625
4180,-56.640625
4181,-56.640625
4182,-60.546875
4183,-52.734375
4184,-54.687500
4185,-58.593750
4186,-56.640625
4187,-56.640625
4188,-58.593750
4189,-56.640625
4190,-56.640625
4191,-56.640625
4192,-54.687500
4193,-56.640625
4194,-56.640625
4195,-56.640625
4196,-56.640625
4197,-56.640625
4198,-56.640625
4199,-56.640625
4200,-56.640625
4201,-56.640625
4202,-56.640625
4203,-56.640625
4204,-56.640625
4205,-56.640625
4206,-56.640625
4207,-56.640625
4208,-56.640625
4209,-56.640625
4210,-56.640625
4211,-60.546875
4212,-56.640625
4213,-56.640625
4214,-52.734375
4215,-56.640625
4216,-56.640625
4217,-56.640625
4218,-60.546875
4219,-56.640625
4220,-56.640625
4221,-58.593750
4222,-56.640625
4223,-60.546875
4224,-56.640625
4225,-56.640625
4226,-58.593750
4227,-56.640625
4228,-56.640625
4229,-62.500000
4230,-56.640625
4231,-56.640625
4232,-68.359375
4233,-54.687500
4234,-58.593750
4235,-56.640625
4236,-58.593750
4237,-56.640625
4238,-56.640625
4239,-56.640625
4240,-56.640625
4241,-56.640625
4242,-58.593750
4243,-56.640625
4244,-56.640625
4245,-56.640625
4246,-56.640625
4247,-62.500000
4248,-60.546875
4249,-60.546875
4250,-56.640625
4251,-56.640625
4252,-60.546875
4253,-56.640625
4254,-54.687500
4255,-58.593750
4256,-56.640625
4257,-60.546875
4258,-56.640625
4259,-56.640625
4260,-60.546875
4261,-56.640625
4262,-56.640625
4263,-60.546875
4264,-56.640625
4265,-56.640625
4266,-60.546875
4267,-56.640625
4268,-56.640625
4269,-56.640625
4270,-58.593750
4271,-60.546875
4272,-60.546875
4273,-56.640625
4274,-56.640625
4275,-58.593750
4276,-56.640625
4277,-60.546875
4278,-56.640625
4279,-56.640625
4280,-60.546875
4281,-54.687500
4282,-58.593750
4283,-58.593750
4284,-56.640625
4285,-56.640625
4286,-56.640625
4287,-58.593750
4288,-58.593750
4289,-58.593750
4290,-60.546875
4291,-56.640625
4292,-56.640625
4293,-58.593750
4294,-56.640625
4295,-60.546875
4296,-60.546875
4297,-60.546875
4298,-60.546875
4299,-56.640625
4300,-56.640625
4301,-56.640625
4302,-56.640625
4303,-64.453125
4304,-52.734375
4305,-56.640625
4306,-56.640625
4307,-56.640625
4308,-60.546875
4309,-56.640625
4310,-56.640625
4311,-56.640625
4312,-54.687500
4313,-56.640625
4314,-54.687500
4315,-54.687500
4316,-54.687500
4317,-54.687500
4318,-54.687500
4319,-50.781250
4320,-54.687500
4321,-54.687500
4322,-50.781250
4323,-56.640625
4324,-54.687500
4325,-54.687500
4326,-54.687500
4327,-50.781250
4328,-54.687500
4329,-50.781250
4330,-54.687500
4331,-50.781250
4332,-50.781250
4333,-54.687500
4334,-52.734375
4335,-48.828125
4336,-50.781250
4337,-50.781250
4338,-50.781250
4339,-50.781250
4340,-56.640625
4341,-50.781250
4342,-50.781250
4343,-48.828125
4344,-48.828125
4345,-50.781250
4346,-48.828125
4347,-48.828125
4348,-50.781250
4349,-50.781250
4350,-48.828125
4351,-50.781250
4352,-48.828125
4353,-48.828125
4354,-50.781250
4355,-48.828125
4356,-52.734375
4357,-48.828125
4358,-48.828125
4359,-50.781250
4360,-48.828125
4361,-50.781250
4362,-48.828125
4363,-52.734375
4364,-50.781250
4365,-48.828125
4366,-48.828125
4367,-48.828125
4368,-48.828125
4369,-50.781250
4370,-48.828125
4371,-50.781250
4372,-48.828125
4373,-46.875000
4374,-50.781250
4375,-48.828125
4376,-48.828125
4377,-48.828125
4378,-48.828125
4379,-50.781250
4380,-48.828125
4381,-46.875000
4382,-48.828125
4383,-48.828125
4384,-48.828125
4385,-48.828125
4386,-48.828125
4387,-48.828125
4388,-48.828125
4389,-48.828125
4390,-48.828125
4391,-50.781250
4392,-60.546875
4393,-46.875000
4394,-48.828125
4395,-48.828125
4396,-48.828125
4397,-50.781250
4398,-48.828125
4399,-48.828125
4400,-48.828125
4401,-46.875000
4402,-48.828125
4403,-44.921875
4404,-48.828125
4405,-46.875000
4406,-46.875000
4407,-50.781250
4408,-46.875000
4409,-48.828125
4410,-48.828125
4411,-48.828125
4412,-48.828125
4413,-54.687500
4414,-48.828125
4415,-50.781250
4416,-50.781250
4417,-48.828125
4418,-52.734375
4419,-48.828125
4420,-52.734375
4421,-50.781250
4422,-48.828125
4423,-52.734375
4424,-48.828125
4425,-48.828125
4426,-48.828125
4427,-46.875000
4428,-50.781250
4429,-50.781250
4430,-52.734375
4431,-48.828125
4432,-48.828125
4433,-52.734375
4434,-50.781250
4435,-48.828125
4436,-48.828125
4437,-52.734375
4438,-48.828125
4439,-50.781250
4440,-48.828125
4441,-46.875000
4442,-50.781250
4443,-48.828125
4444,-54.687500
4445,-48.828125
4446,-50.781250
4447,-50.781250
4448,-48.828125
4449,-48.828125
4450,-48.828125
4451,-48.828125
4452,-48.828125
4453,-48.828125
4454,-48.828125
4455,-50.781250
4456,-48.828125
4457,-48.828125
4458,-48.828125
4459,-54.687500
4460,-50.781250
4461,-48.828125
4462,-50.781250
4463,-48.828125
4464,-48.828125
4465,-50.781250
4466,-48.828125
4467,-50.781250
4468,-46.875000
4469,-48.828125
4470,-48.828125
4471,-48.828125
4472,-52.734375
4473,-48.828125
4474,-50.781250
4475,-48.828125
4476,-48.828125
4477,-48.828125
4478,-48.828125
4479,-48.828125
4480,-50.781250
4481,-48.828125
4482,-52.734375
4483,-50.781250
4484,-48.828125
4485,-50.781250
4486,-50.781250
4487,-50.781250
4488,-48.828125
4489,-48.828125
4490,-44.921875
4491,-48.828125
4492,-48.828125
4493,-48.828125
4494,-44.921875
4495,-48.828125
4496,-46.875000
4497,-48.828125
4498,-48.828125
4499,-46.875000
4500,-50.781250
4501,-48.828125
4502,-48.828125
4503,-48.828125
4504,-48.828125
4505,-48.828125
4506,-48.828125
4507,-46.875000
4508,-46.875000
4509,-48.828125
4510,-48.828125
4511,-48.828125
4512,-48.828125
4513,-44.921875
4514,-46.875000
4515,-54.687500
4516,-46.875000
4517,-52.734375
4518,-48.828125
4519,-48.828125
4520,-46.875000
4521,-46.875000
4522,-50.781250
4523,-50.781250
4524,-46.875000
4525,-50.781250
4526,-46.875000
4527,-48.828125
4528,-48.828125
4529,-48.828125
4530,-41.015625
4531,-48.828125
4532,-48.828125
4533,-48.828125
4534,-48.828125
4535,-50.781250
4536,-48.828125
4537,-48.828125
4538,-48.828125
4539,-41.015625
4540,-44.921875
4541,-42.968750
4542,-44.921875
4543,-41.015625
4544,-37.109375
4545,-37.109375
4546,-35.156250
4547,-33.203125
4548,-35.156250
4549,-29.296875
4550,-29.296875
4551,-27.343750
4552,-25.390625
4553,-33.203125
4554,-23.437500
4555,-23.437500
4556,-21.484375
4557,-21.484375
4558,-19.531250
4559,-17.578125
4560,-17.578125
4561,-15.625000
4562,-17.578125
4563,-15.625000
4564,-13.671875
4565,-15.625000
4566,-13.671875
4567,-13.671875
4568,-13.671875
4569,-9.765625
4570,-15.625000
4571,-9.765625
4572,-13.671875
4573,-9.765625
4574,-11.718750
4575,-13.671875
4576,-9.765625
4577,-13.671875
4578,-9.765625
4579,-13.671875
4580,-13.671875
4581,-9.765625
4582,-13.671875
4583,-9.765625
4584,-13.671875
4585,-9.765625
4586,-9.765625
4587,-13.671875
4588,-11.718750
4589,-9.765625
4590,-13.671875
4591,-9.765625
4592,-9.765625
4593,-9.765625
4594,-9.765625
4595,-13.671875
4596,-9.765625
4597,-13.671875
4598,-13.671875
4599,-9.765625
4600,-13.671875
4601,-9.765625
4602,-9.765625
4603,-13.671875
4604,-9.765625
4605,-9.765625
4606,-5.859375
4607,-13.671875
4608,-9.765625
4609,-11.718750
4610,-13.671875
4611,-9.765625
4612,-13.671875
4613,-9.765625
4614,-9.765625
4615,-9.765625
4616,-9.765625
4617,-13.671875
4618,-9.765625
4619,-13.671875
4620,-9.765625
4621,-9.765625
4622,-13.671875
4623,-9.765625
4624,-15.625000
4625,-9.765625
4626,-9.765625
4627,-13.671875
4628,-9.765625
4629,-13.671875
4630,-9.765625
4631,-9.765625
4632,-13.671875
4633,-9.765625
4634,-9.765625
4635,-9.765625
4636,-9.765625
4637,-9.765625
4638,-9.765625
4639,-9.765625
4640,-9.765625
4641,-7.812500
4642,-9.765625
4643,-7.812500
4644,-9.765625
4645,-9.765625
4646,-5.859375
4647,-9.765625
4648,-5.859375
4649,-9.765625
4650,-9.765625
4651,-7.812500
4652,-9.765625
4653,-7.812500
4654,-5.859375
4655,-9.765625
4656,-5.859375
4657,-9.765625
4658,-3.906250
4659,-7.812500
4660,-9.765625
4661,-7.812500
4662,-7.812500
4663,-7.812500
4664,-9.765625
4665,-7.812500
4666,-7.812500
4667,-5.859375
4668,-9.765625
4669,-3.906250
4670,-7.812500
4671,-9.765625
4672,-3.906250
4673,-13.671875
4674,-5.859375
4675,-7.812500
4676,-7.812500
4677,-7.812500
4678,-9.765625
4679,-5.859375
4680,-7.812500
4681,-7.812500
4682,-3.906250
4683,-9.765625
4684,-7.812500
4685,-5.859375
4686,-9.765625
4687,-5.859375
4688,-5.859375
4689,-5.859375
4690,-5.859375
4691,-5.859375
4692,-5.859375
4693,-3.906250
4694,-7.812500
4695,-5.859375
4696,-3.906250
4697,-3.906250
4698,-3.906250
4699,-9.765625
4700,-3.906250
4701,-3.906250
4702,-7.812500
4703,-3.906250
4704,-5.859375
4705,-1.953125
4706,-5.859375
4707,-5.859375
4708,-7.812500
4709,-7.812500
4710,-5.859375
4711,-5.859375
4712,-5.859375
4713,-3.906250
4714,-7.812500
4715,-5.859375
4716,-7.812500
4717,-1.953125
4718,-7.812500
4719,-5.859375
4720,-5.859375
4721,-5.859375
4722,-9.765625
4723,-5.859375
4724,-7.812500
4725,-7.812500
4726,-5.859375
4727,-9.765625
4728,-5.859375
4729,-9.765625
4730,-5.859375
4731,-7.812500
4732,-5.859375
4733,-7.812500
4734,-7.812500
4735,-5.859375
4736,-7.812500
4737,-7.812500
4738,-5.859375
4739,-11.718750
4740,-3.906250
4741,-7.812500
4742,-5.859375
4743,-5.859375
4744,-7.812500
4745,-7.812500
4746,-7.812500
4747,-7.812500
4748,1.953125
4749,-7.812500
4750,-3.906250
4751,-5.859375
4752,-7.812500
4753,-7.812500
4754,-7.812500
4755,-3.906250
4756,-7.812500
4757,-5.859375
4758,-5.859375
4759,-5.859375
4760,-7.812500
4761,-1.953125
4762,-9.765625
4763,-5.859375
4764,-7.812500
4765,-3.906250
4766,-5.859375
4767,-9.765625
4768,-5.859375
4769,-9.765625
4770,-3.906250
4771,-5.859375
4772,-7.812500
4773,-3.906250
4774,-7.812500
4775,-3.906250
4776,-9.765625
4777,-7.812500
4778,-7.812500
4779,-7.812500
4780,-7.812500
4781,-3.906250
4782,-5.859375
4783,-5.859375
4784,-5.859375
4785,-7.812500
4786,-5.859375
4787,-7.812500
4788,-3.906250
4789,-7.812500
4790,-9.765625
4791,-3.906250
4792,-9.765625
4793,-7.812500
4794,-5.859375
4795,-7.812500
4796,-5.859375
4797,-7.812500
4798,-7.812500
4799,-7.812500
4800,-7.812500
4801,-5.859375
4802,-5.859375
4803,-5.859375
4804,-5.859375
4805,-5.859375
4806,-3.906250
4807,-5.859375
4808,-7.812500
4809,-5.859375
4810,-7.812500
4811,-5.859375
4812,-7.812500
4813,-7.812500
4814,-5.859375
4815,-7.812500
4816,-5.859375
4817,-7.812500
4818,-7.812500
4819,-5.859375
4820,-9.765625
4821,-7.812500
4822,-7.812500
4823,-5.859375
4824,-9.765625
4825,-9.765625
4826,-7.812500
4827,-9.765625
4828,-9.765625
4829,-9.765625
4830,-7.812500
4831,-7.812500
4832,-7.812500
4833,-9.765625
4834,-9.765625
4835,-9.765625
4836,-7.812500
4837,-9.765625
4838,-9.765625
4839,-9.765625
4840,-9.765625
4841,-25.390625
4842,-13.671875
4843,-13.671875
4844,-11.718750
4845,-13.671875
4846,-13.671875
4847,-13.671875
4848,-15.625000
4849,-13.671875
4850,0.000000
4851,-17.578125
4852,-17.578125
4853,-17.578125
4854,-17.578125
4855,-17.578125
4856,-17.578125
4857,-19.531250
4858,-19.531250
4859,-17.578125
4860,-19.531250
4861,-19.531250
4862,-21.484375
4863,-19.531250
4864,-17.578125
4865,-21.484375
4866,-21.484375
4867,-19.531250
4868,-19.531250
4869,-21.484375
4870,-21.484375
4871,-19.531250
4872,-23.437500
4873,-19.531250
4874,-23.437500
4875,-21.484375
4876,-21.484375
4877,-23.437500
4878,-23.437500
4879,-21.484375
4880,-21.484375
4881,-21.484375
4882,-23.437500
4883,-23.437500
4884,-23.437500
4885,-23.437500
4886,-23.437500
4887,-25.390625
4888,-25.390625
4889,-21.484375
4890,-23.437500
4891,-21.484375
4892,-25.390625
4893,-23.437500
4894,-23.437500
4895,-25.390625
4896,-25.390625
4897,-25.390625
4898,-29.296875
4899,-21.484375
4900,-29.296875
4901,-25.390625
4902,-25.390625
4903,-27.343750
4904,-29.296875
4905,-29.296875
4906,-29.296875
4907,-29.296875
4908,-29.296875
4909,-31.250000
4910,-31.250000
4911,-31.250000
4912,-35.156250
4913,-33.203125
4914,-37.109375
4915,-39.062500
4916,-35.156250
4917,-44.921875
4918,-39.062500
4919,-41.015625
4920,-42.968750
4921,-44.921875
4922,-44.921875
4923,-44.921875
4924,-48.828125
4925,-50.781250
4926,-44.921875
4927,-50.781250
4928,-48.828125
4929,-52.734375
4930,-50.781250
4931,-50.781250
4932,-54.687500
4933,-52.734375
4934,-56.640625
4935,-54.687500
4936,-56.640625
4937,-56.640625
4938,-56.640625
4939,-56.640625
4940,-56.640625
4941,-56.640625
4942,-56.640625
4943,-58.593750
4944,-56.640625
4945,-54.687500
4946,-56.640625
4947,-56.640625
4948,-58.593750
4949,-60.546875
4950,-56.640625
4951,-56.640625
4952,-50.781250
4953,-56.640625
4954,-56.640625
4955,-56.640625
4956,-60.546875
4957,-56.640625
4958,-56.640625
4959,-56.640625
4960,-60.546875
4961,-60.546875
4962,-60.546875
4963,-56.640625
4964,-56.640625
4965,-56.640625
4966,-62.500000
4967,-56.640625
4968,-56.640625
4969,-56.640625
4970,-58.593750
4971,-58.593750
4972,-56.640625
4973,-56.640625
4974,-54.687500
4975,-56.640625
4976,-58.593750
4977,-56.640625
4978,-60.546875
4979,-54.687500
4980,-58.593750
4981,-56.640625
4982,-56.640625
4983,-60.546875
4984,-54.687500
4985,-58.593750
4986,-60.546875
4987,-56.640625
4988,-60.546875
4989,-56.640625
4990,-56.640625
4991,-56.640625
4992,-56.640625
4993,-56.640625
4994,-56.640625
4995,-56.640625
4996,-56.640625
4997,-56.640625
4998,-56.640625
4999,-56.640625
5000,-56.640625
5001,-56.640625
5002,-56.640625
5003,-56.640625
5004,-56.640625
5005,-56.640625
5006,-56.640625
5007,-56.640625
5008,-56.640625
5009,-56.640625
5010,-56.640625
5011,-60.546875
5012,-56.640625
5013,-58.593750
5014,-56.640625
5015,-56.640625
5016,-60.546875
5017,-60.546875
5018,-58.593750
5019,-54.687500
5020,-56.640625
5021,-60.546875
5022,-56.640625
5023,-56.640625
5024,-56.640625
5025,-56.640625
5026,-56.640625
5027,-56.640625
5028,-54.687500
5029,-58.593750
5030,-56.640625
5031,-60.546875
5032,-56.640625
5033,-60.546875
5034,-58.593750
5035,-56.640625
5036,-56.640625
5037,-56.640625
5038,-60.546875
5039,-60.546875
5040,-56.640625
5041,-60.546875
5042,-60.546875
5043,-56.640625
5044,-56.640625
5045,-60.546875
5046,-56.640625
5047,-58.593750
5048,-56.640625
5049,-58.593750
5050,-56.640625
5051,-58.593750
5052,-56.640625
5053,-56.640625
5054,-60.546875
5055,-54.687500
5056,-56.640625
5057,-56.640625
5058,-56.640625
5059,-60.546875
5060,-56.640625
5061,-60.546875
5062,-58.593750
5063,-56.640625
5064,-58.593750
5065,-56.640625
5066,-58.593750
5067,-56.640625
5068,-56.640625
5069,-60.546875
5070,-56.640625
5071,-56.640625
5072,-58.593750
5073,-58.593750
5074,-58.593750
5075,-56.640625
5076,-56.640625
5077,-60.546875
5078,-58.593750
5079,-60.546875
5080,-56.640625
5081,-56.640625
5082,-60.546875
5083,-52.734375
5084,-60.546875
5085,-56.640625
5086,-56.640625
5087,-56.640625
5088,-56.640625
5089,-58.593750
5090,-58.593750
5091,-56.640625
5092,-56.640625
5093,-56.640625
5094,-58.593750
5095,-58.593750
5096,-54.687500
5097,-58.593750
5098,-56.640625
5099,-62.500000
5100,-56.640625
5101,-56.640625
5102,-60.546875
5103,-56.640625
5104,-56.640625
5105,-56.640625
5106,-54.687500
5107,-56.640625
5108,-50.781250
5109,-56.640625
5110,-56.640625
5111,-54.687500
5112,-56.640625
5113,-54.687500
5114,-56.640625
5115,-54.687500
5116,-54.687500
5117,-54.687500
5118,-56.640625
5119,-56.640625
5120,-56.640625
5121,-54.687500
5122,-56.640625
5123,-56.640625
5124,-54.687500
5125,-62.500000
5126,-56.640625
5127,-56.640625
5128,-54.687500
5129,-54.687500
5130,-54.687500
5131,-56.640625
5132,-56.640625
5133,-56.640625
5134,-54.687500
5135,-56.640625
5136,-72.265625
5137,-56.640625
5138,-56.640625
5139,-56.640625
5140,-56.640625
5141,-52.734375
5142,-56.640625
5143,-54.687500
5144,-54.687500
5145,-56.640625
5146,-54.687500
5147,-54.687500
5148,-54.687500
5149,-50.781250
5150,-56.640625
5151,-56.640625
5152,-54.687500
5153,-50.781250
5154,-54.687500
5155,-54.687500
5156,-54.687500
5157,-56.640625
5158,-56.640625
5159,-52.734375
5160,-54.687500
5161,-54.687500
5162,-56.640625
5163,-54.687500
5164,-56.640625
5165,-56.640625
5166,-48.828125
5167,-56.640625
5168,-52.734375
5169,-54.687500
5170,-56.640625
5171,-56.640625
5172,-58.593750
5173,-50.781250
5174,-54.687500
5175,-52.734375
5176,-52.734375
5177,-56.640625
5178,-50.781250
5179,-56.640625
5180,-52.734375
5181,-54.687500
5182,-56.640625
5183,-50.781250
5184,-46.875000
5185,-54.687500
5186,-56.640625
5187,-54.687500
5188,-56.640625
5189,-54.687500
5190,-56.640625
5191,-54.687500
5192,-52.734375
5193,-56.640625
5194,-54.687500
5195,-56.640625
5196,-54.687500
5197,-54.687500
5198,-56.640625
5199,-54.687500
5200,-54.687500
5201,-54.687500
5202,-52.734375
5203,-54.687500
5204,-54.687500
5205,-54.687500
5206,-56.640625
5207,-54.687500
5208,-54.687500
5209,-54.687500
5210,-54.687500
5211,-54.687500
5212,-50.781250
5213,-54.687500
5214,-54.687500
5215,-54.687500
5216,-41.015625
5217,-52.734375
5218,-56.640625
5219,-52.734375
5220,-54.687500
5221,-56.640625
5222,-54.687500
5223,-50.781250
5224,-68.359375
5225,-56.640625
5226,-56.640625
5227,-54.687500
5228,-56.640625
5229,-54.687500
5230,-56.640625
5231,-54.687500
5232,-54.687500
5233,-52.734375
5234,-56.640625
5235,-56.640625
5236,-54.687500
5237,-52.734375
5238,-56.640625
5239,-54.687500
5240,-54.687500
5241,-52.734375
5242,-52.734375
5243,-54.687500
5244,-54.687500
5245,-54.687500
5246,-52.734375
5247,-54.687500
5248,-54.687500
5249,-52.734375
5250,-50.781250
5251,-52.734375
5252,-54.687500
5253,-56.640625
5254,-48.828125
5255,-54.687500
5256,-52.734375
5257,-50.781250
5258,-54.687500
5259,-50.781250
5260,-56.640625
5261,-54.687500
5262,-54.687500
5263,-54.687500
5264,-54.687500
5265,-56.640625
5266,-50.781250
5267,-52.734375
5268,-54.687500
5269,-48.828125
5270,-56.640625
5271,-50.781250
5272,-56.640625
5273,-56.640625
5274,-56.640625
5275,-54.687500
5276,-52.734375
5277,-50.781250
5278,-52.734375
5279,-50.781250
5280,-54.687500
5281,-54.687500
5282,-54.687500
5283,-54.687500
5284,-50.781250
5285,-52.734375
5286,-54.687500
5287,-50.781250
5288,-54.687500
5289,-56.640625
5290,-52.734375
5291,-54.687500
5292,-48.828125
5293,-56.640625
5294,-52.734375
5295,-50.781250
5296,-54.687500
5297,-50.781250
5298,-56.640625
5299,-52.734375
5300,-54.687500
5301,-52.734375
5302,-52.734375
5303,-52.734375
5304,-44.921875
5305,-52.734375
5306,-54.687500
5307,-48.828125
5308,-52.734375
5309,-52.734375
5310,-52.734375
5311,-56.640625
5312,-54.687500
5313,-52.734375
5314,-50.781250
5315,-50.781250
5316,-54.687500
5317,-50.781250
5318,-54.687500
5319,-52.734375
5320,-54.687500
5321,-52.734375
5322,-48.828125
5323,-54.687500
5324,-52.734375
5325,-52.734375
5326,-52.734375
5327,-50.781250
5328,-52.734375
5329,-48.828125
5330,-52.734375
5331,-52.734375
5332,-48.828125
5333,-52.734375
5334,-54.687500
5335,-64.453125
5336,-54.687500
5337,-48.828125
5338,-50.781250
5339,-50.781250
5340,-48.828125
5341,-54.687500
5342,-48.828125
5343,-52.734375
5344,-50.781250
5345,-48.828125
5346,-50.781250
5347,-48.828125
5348,-48.828125
5349,-48.828125
5350,-48.828125
5351,-50.781250
5352,-48.828125
5353,-46.875000
5354,-48.828125
5355,-46.875000
5356,-48.828125
5357,-44.921875
5358,-46.875000
5359,-46.875000
5360,-46.875000
5361,-46.875000
5362,-44.921875
5363,-46.875000
5364,-46.875000
5365,-46.875000
5366,-48.828125
5367,-46.875000
5368,-44.921875
5369,-50.781250
5370,-48.828125
5371,-44.921875
5372,-44.921875
5373,-44.921875
5374,-48.828125
5375,-46.875000
5376,-46.875000
5377,-46.875000
5378,-46.875000
5379,-46.875000
5380,-44.921875
5381,-48.828125
5382,-44.921875
5383,-46.875000
5384,-44.921875
5385,-46.875000
5386,-46.875000
5387,-44.921875
5388,-44.921875
5389,-46.875000
5390,-44.921875
5391,-44.921875
5392,-44.921875
5393,-41.015625
5394,-44.921875
5395,-42.968750
5396,-44.921875
5397,-44.921875
5398,-44.921875
5399,-44.921875
5400,-41.015625
5401,-44.921875
5402,-44.921875
5403,-41.015625
5404,-42.968750
5405,-41.015625
5406,-42.968750
5407,-41.015625
5408,-41.015625
5409,-44.921875
5410,-41.015625
5411,-46.875000
5412,-41.015625
5413,-44.921875
5414,-41.015625
5415,-44.921875
5416,-41.015625
5417,-39.062500
5418,-46.875000
5419,-39.062500
5420,-41.015625
5421,-41.015625
5422,-39.062500
5423,-41.015625
5424,-37.109375
5425,-41.015625
5426,-39.062500
5427,-37.109375
5428,-41.015625
5429,-33.203125
5430,-39.062500
5431,-35.156250
5432,-35.156250
5433,-39.062500
5434,-35.156250
5435,-35.156250
5436,-35.156250
5437,-35.156250
5438,-33.203125
5439,-33.203125
5440,-33.203125
5441,-33.203125
5442,-29.296875
5443,-33.203125
5444,-33.203125
5445,-29.296875
5446,-33.203125
5447,-29.296875
5448,-29.296875
5449,-31.250000
5450,-29.296875
5451,-31.250000
5452,-29.296875
5453,-29.296875
5454,-29.296875
5455,-25.390625
5456,-29.296875
5457,-25.390625
5458,-21.484375
5459,-23.437500
5460,-21.484375
5461,-19.531250
5462,-23.437500
5463,-17.578125
5464,-19.531250
5465,-17.578125
5466,-15.625000
5467,-15.625000
5468,-13.671875
5469,-13.671875
5470,-13.671875
5471,-13.671875
5472,-13.671875
5473,-9.765625
5474,-11.718750
5475,-9.765625
5476,-11.718750
5477,-9.765625
5478,-7.812500
5479,-13.671875
5480,-7.812500
5481,-9.765625
5482,-9.765625
5483,-9.765625
5484,-9.765625
5485,-9.765625
5486,-9.765625
5487,-9.765625
5488,-9.765625
5489,-9.765625
5490,-9.765625
5491,-7.812500
5492,-9.765625
5493,-9.765625
5494,-9.765625
5495,-11.718750
5496,-9.765625
5497,-9.765625
5498,-7.812500
5499,-9.765625
5500,-9.765625
5501,-9.765625
5502,-9.765625
5503,-9.765625
5504,-9.765625
5505,-9.765625
5506,-1.953125
5507,-9.765625
5508,-9.765625
5509,-9.765625
5510,-9.765625
5511,-9.765625
5512,-9.765625
5513,-9.765625
5514,-9.765625
5515,-9.765625
5516,-7.812500
5517,-9.765625
5518,-7.812500
5519,-7.812500
5520,-9.765625
5521,-9.765625
5522,-9.765625
5523,-9.765625
5524,-7.812500
5525,-9.765625
5526,-5.859375
5527,-9.765625
5528,-9.765625
5529,-9.765625
5530,-11.718750
5531,-9.765625
5532,-9.765625
5533,-9.765625
5534,-9.765625
5535,-7.812500
5536,1.953125
5537,-9.765625
5538,-9.765625
5539,-7.812500
5540,-9.765625
5541,-9.765625
5542,-7.812500
5543,-9.765625
5544,-3.906250
5545,-9.765625
5546,-9.765625
5547,-9.765625
5548,-9.765625
5549,-3.906250
5550,-9.765625
5551,-9.765625
5552,-9.765625
5553,-9.765625
5554,-7.812500
5555,-9.765625
5556,-7.812500
5557,-9.765625
5558,-9.765625
5559,-7.812500
5560,-9.765625
5561,-7.812500
5562,-9.765625
5563,-7.812500
5564,-9.765625
5565,-9.765625
5566,-9.765625
5567,-9.765625
5568,-9.765625
5569,-9.765625
5570,-9.765625
5571,-9.765625
5572,-9.765625
5573,-9.765625
5574,-9.765625
5575,-9.765625
5576,-9.765625
5577,-7.812500
5578,-13.671875
5579,-9.765625
5580,-9.765625
5581,-9.765625
5582,-9.765625
5583,-11.718750
5584,5.859375
5585,-13.671875
5586,-9.765625
5587,-13.671875
5588,-13.671875
5589,-15.625000
5590,-13.671875
5591,-13.671875
5592,-13.671875
5593,-9.765625
5594,-15.625000
5595,-15.625000
5596,-13.671875
5597,-13.671875
5598,-17.578125
5599,-17.578125
5600,-17.578125
5601,-17.578125
5602,-13.671875
5603,-17.578125
5604,-17.578125
5605,-17.578125
5606,-19.531250
5607,-17.578125
5608,-19.531250
5609,-19.531250
5610,-17.578125
5611,-21.484375
5612,-15.625000
5613,-19.531250
5614,-19.531250
5615,-19.531250
5616,-19.531250
5617,-21.484375
5618,-25.390625
5619,-19.531250
5620,-23.437500
5621,-21.484375
5622,-21.484375
5623,-23.437500
5624,-23.437500
5625,-23.437500
5626,-23.437500
5627,-21.484375
5628,-23.437500
5629,-25.390625
5630,-25.390625
5631,-25.390625
5632,-25.390625
5633,-25.390625
5634,-25.390625
5635,-23.437500
5636,-29.296875
5637,-25.390625
5638,-25.390625
5639,-25.390625
5640,-23.437500
5641,-25.390625
5642,-23.437500
5643,-25.390625
5644,-23.437500
5645,-25.390625
5646,-27.343750
5647,-25.390625
5648,-25.390625
5649,-29.296875
5650,-25.390625
5651,-25.390625
5652,-31.250000
5653,-29.296875
5654,-31.250000
5655,-29.296875
5656,-33.203125
5657,-33.203125
5658,-33.203125
5659,-31.250000
5660,-33.203125
5661,-31.250000
5662,-33.203125
5663,-37.109375
5664,-35.156250
5665,-35.156250
5666,-37.109375
5667,-35.156250
5668,-39.062500
5669,-37.109375
5670,-37.109375
5671,-41.015625
5672,-39.062500
5673,-44.921875
5674,-41.015625
5675,-41.015625
5676,-41.015625
5677,-41.015625
5678,-44.921875
5679,-41.015625
5680,-41.015625
5681,-44.921875
5682,-44.921875
5683,-48.828125
5684,-44.921875
5685,-44.921875
5686,-44.921875
5687,-46.875000
5688,-44.921875
5689,-46.875000
5690,-44.921875
5691,-46.875000
5692,-44.921875
5693,-29.296875
5694,-48.828125
5695,-44.921875
5696,-44.921875
5697,-48.828125
5698,-46.875000
5699,-50.781250
5700,-44.921875
5701,-44.921875
5702,-48.828125
5703,-48.828125
5704,-48.828125
5705,-48.828125
5706,-44.921875
5707,-48.828125
5708,-48.828125
5709,-52.734375
5710,-48.828125
5711,-48.828125
5712,-48.828125
5713,-48.828125
5714,-48.828125
5715,-48.828125
5716,-48.828125
5717,-50.781250
5718,-50.781250
5719,-48.828125
5720,-48.828125
5721,-50.781250
5722,-50.781250
5723,-48.828125
5724,-48.828125
5725,-50.781250
5726,-48.828125
5727,-48.828125
5728,-48.828125
5729,-52.734375
5730,-52.734375
5731,-48.828125
5732,-48.828125
5733,-50.781250
5734,-50.781250
5735,-54.687500
5736,-48.828125
5737,-54.687500
5738,-52.734375
5739,-50.781250
5740,-52.734375
5741,-48.828125
5742,-52.734375
5743,-52.734375
5744,-56.640625
5745,-54.687500
5746,-52.734375
5747,-54.687500
5748,-52.734375
5749,-41.015625
5750,-54.687500
5751,-56.640625
5752,-52.734375
5753,-56.640625
5754,-52.734375
5755,-56.640625
5756,-56.640625
5757,-54.687500
5758,-56.640625
5759,-50.781250
5760,-54.687500
5761,-56.640625
5762,-54.687500
5763,-56.640625
5764,-52.734375
5765,-56.640625
5766,-52.734375
5767,-56.640625
5768,-56.640625
5769,-56.640625
5770,-56.640625
5771,-58.593750
5772,-56.640625
5773,-56.640625
5774,-56.640625
5775,-56.640625
5776,-56.640625
5777,-52.734375
5778,-56.640625
5779,-56.640625
5780,-56.640625
5781,-56.640625
5782,-54.687500
5783,-56.640625
5784,-56.640625
5785,-56.640625
5786,-56.640625
5787,-54.687500
5788,-56.640625
5789,-48.828125
5790,-56.640625
5791,-56.640625
5792,-56.640625
5793,-54.687500
5794,-52.734375
5795,-54.687500
5796,-56.640625
5797,-56.640625
5798,-56.640625
5799,-56.640625
5800,-54.687500
5801,-56.640625
5802,-54.687500
5803,-54.687500
5804,-64.453125
5805,-54.687500
5806,-56.640625
5807,-56.640625
5808,-54.687500
5809,-52.734375
5810,-56.640625
5811,-56.640625
5812,-56.640625
5813,-56.640625
5814,-56.640625
5815,-56.640625
5816,-56.640625
5817,-56.640625
5818,-56.640625
5819,-56.640625
5820,-56.640625
5821,-54.687500
5822,-54.687500
5823,-52.734375
5824,-56.640625
5825,-54.687500
5826,-56.640625
5827,-56.640625
5828,-50.781250
5829,-56.640625
5830,-52.734375
5831,-56.640625
5832,-54.687500
5833,-52.734375
5834,-54.687500
5835,-48.828125
5836,-54.687500
5837,-56.640625
5838,-62.500000
5839,-56.640625
5840,-54.687500
5841,-54.687500
5842,-54.687500
5843,-52.734375
5844,-54.687500
5845,-54.687500
5846,-54.687500
5847,-64.453125
5848,-52.734375
5849,-48.828125
5850,-54.687500
5851,-50.781250
5852,-56.640625
5853,-52.734375
5854,-54.687500
5855,-54.687500
5856,-54.687500
5857,-54.687500
5858,-52.734375
5859,-54.687500
5860,-54.687500
5861,-54.687500
5862,-54.687500
5863,-54.687500
5864,-54.687500
5865,-54.687500
5866,-56.640625
5867,-50.781250
5868,-52.734375
5869,-54.687500
5870,-52.734375
5871,-56.640625
5872,-54.687500
5873,-50.781250
5874,-54.687500
5875,-56.640625
5876,-50.781250
5877,-56.640625
5878,-54.687500
5879,-56.640625
5880,-54.687500
5881,-50.781250
5882,-54.687500
5883,-50.781250
5884,-50.781250
5885,-56.640625
5886,-54.687500
5887,-64.453125
5888,-54.687500
5889,-54.687500
5890,-54.687500
5891,-54.687500
5892,-52.734375
5893,-50.781250
5894,-52.734375
5895,-54.687500
5896,-44.921875
5897,-52.734375
5898,-56.640625
5899,-48.828125
5900,-54.687500
5901,-52.734375
5902,-50.781250
5903,-56.640625
5904,-52.734375
5905,-52.734375
5906,-50.781250
5907,-54.687500
5908,-50.781250
5909,-56.640625
5910,-56.640625
5911,-48.828125
5912,-54.687500
5913,-48.828125
5914,-52.734375
5915,-54.687500
5916,-50.781250
5917,-54.687500
5918,-48.828125
5919,-52.734375
5920,-52.734375
5921,-54.687500
5922,-54.687500
5923,-52.734375
5924,-52.734375
5925,-56.640625
5926,-54.687500
5927,-54.687500
5928,-52.734375
5929,-50.781250
5930,-56.640625
5931,-50.781250
5932,-56.640625
5933,-50.781250
5934,-50.781250
5935,-54.687500
5936,-52.734375
5937,-52.734375
5938,-52.734375
5939,-54.687500
5940,-50.781250
5941,-54.687500
5942,-50.781250
5943,-52.734375
5944,-52.734375
5945,-44.921875
5946,-52.734375
5947,-52.734375
5948,-52.734375
5949,-54.687500
5950,-50.781250
5951,-54.687500
5952,-50.781250
5953,-52.734375
5954,-54.687500
5955,-50.781250
5956,-54.687500
5957,-52.734375
5958,-54.687500
5959,-54.687500
5960,-52.734375
5961,-52.734375
5962,-52.734375
5963,-50.781250
5964,-52.734375
5965,-54.687500
5966,-54.687500
5967,-48.828125
5968,-52.734375
5969,-54.687500
5970,-52.734375
5971,-54.687500
5972,-48.828125
5973,-50.781250
5974,-52.734375
5975,-48.828125
5976,-52.734375
5977,-52.734375
5978,-54.687500
5979,-52.734375
5980,-54.687500
5981,-56.640625
5982,-48.828125
5983,-54.687500
5984,-50.781250
5985,-48.828125
5986,-54.687500
5987,-50.781250
5988,-56.640625
5989,-52.734375
5990,-52.734375
5991,-50.781250
5992,-48.828125
5993,-52.734375
5994,-52.734375
5995,-50.781250
5996,-52.734375
5997,-50.781250
5998,-52.734375
5999,-48.828125
6000,-52.734375
6001,-54.687500
6002,-52.734375
6003,-50.781250
6004,-54.687500
6005,-52.734375
6006,-50.781250
6007,-50.781250
6008,-48.828125
6009,-50.781250
6010,-54.687500
6011,-52.734375
6012,-50.781250
6013,-50.781250
6014,-52.734375
6015,-50.781250
6016,-60.546875
6017,-50.781250
6018,-52.734375
6019,-50.781250
6020,-52.734375
6021,-54.687500
6022,-46.875000
6023,-56.640625
6024,-52.734375
6025,-50.781250
6026,-54.687500
6027,-50.781250
6028,-54.687500
6029,-50.781250
6030,-54.687500
6031,-52.734375
6032,-48.828125
6033,-54.687500
6034,-50.781250
6035,-50.781250
6036,-52.734375
6037,-52.734375
6038,-52.734375
6039,-52.734375
6040,-50.781250
6041,-52.734375
6042,-48.828125
6043,-54.687500
6044,-52.734375
6045,-48.828125
6046,-54.687500
6047,-52.734375
6048,-50.781250
6049,-52.734375
6050,-52.734375
6051,-52.734375
6052,-44.921875
6053,-52.734375
6054,-50.781250
6055,-48.828125
6056,-52.734375
6057,-52.734375
6058,-54.687500
6059,-52.734375
6060,-52.734375
6061,-54.687500
6062,-48.828125
6063,-54.687500
6064,-52.734375
6065,-56.640625
6066,-52.734375
6067,-48.828125
6068,-52.734375
6069,-50.781250
6070,-54.687500
6071,-52.734375
6072,-50.781250
6073,-54.687500
6074,-44.921875
6075,-48.828125
6076,-54.687500
6077,-52.734375
6078,-50.781250
6079,-48.828125
6080,-50.781250
6081,-52.734375
6082,-48.828125
6083,-56.640625
6084,-48.828125
6085,-48.828125
6086,-50.781250
6087,-48.828125
6088,-50.781250
6089,-48.828125
6090,-50.781250
6091,-52.734375
6092,-48.828125
6093,-50.781250
6094,-50.781250
6095,-50.781250
6096,-52.734375
6097,-50.781250
6098,-54.687500
6099,-48.828125
6100,-50.781250
6101,-56.640625
6102,-48.828125
6103,-54.687500
6104,-48.828125
6105,-52.734375
6106,-48.828125
6107,-48.828125
6108,-50.781250
6109,-48.828125
6110,-50.781250
6111,-48.828125
6112,-52.734375
6113,-48.828125
6114,-50.781250
6115,-52.734375
6116,-52.734375
6117,-50.781250
6118,-52.734375
6119,-50.781250
6120,-52.734375
6121,-52.734375
6122,-48.828125
6123,-35.156250
6124,-52.734375
6125,-52.734375
6126,-54.687500
6127,-48.828125
6128,-52.734375
6129,-50.781250
6130,-52.734375
6131,-52.734375
6132,-52.734375
6133,-52.734375
6134,-50.781250
6135,-50.781250
6136,-52.734375
6137,-48.828125
6138,-52.734375
6139,-50.781250
6140,-48.828125
6141,-50.781250
6142,-50.781250
6143,-48.828125
6144,-50.781250
6145,-50.781250
6146,-50.781250
6147,-48.828125
6148,-48.828125
6149,-48.828125
6150,-56.640625
6151,-52.734375
6152,-52.734375
6153,-50.781250
6154,-52.734375
6155,-48.828125
6156,-52.734375
6157,-48.828125
6158,-50.781250
6159,-50.781250
6160,-52.734375
6161,-48.828125
6162,-50.781250
6163,-50.781250
6164,-48.828125
6165,-52.734375
6166,-48.828125
6167,-50.781250
6168,-52.734375
6169,-48.828125
6170,-54.687500
6171,-48.828125
6172,-60.546875
6173,-52.734375
6174,-48.828125
6175,-52.734375
6176,-48.828125
6177,-52.734375
6178,-50.781250
6179,-50.781250
6180,-54.687500
6181,-46.875000
6182,-50.781250
6183,-52.734375
6184,-50.781250
6185,-48.828125
6186,-52.734375
6187,-52.734375
6188,-50.781250
6189,-54.687500
6190,-48.828125
6191,-52.734375
6192,-48.828125
6193,-50.781250
6194,-50.781250
6195,-50.781250
6196,-52.734375
6197,-48.828125
6198,-50.781250
6199,-50.781250
6200,-50.781250
6201,-52.734375
6202,-48.828125
6203,-50.781250
6204,-50.781250
6205,-48.828125
6206,-52.734375
6207,-52.734375
6208,-56.640625
6209,-56.640625
6210,-50.781250
6211,-64.453125
6212,-52.734375
6213,-54.687500
6214,-50.781250
6215,-54.687500
6216,-54.687500
6217,-52.734375
6218,-54.687500
6219,-54.687500
6220,-52.734375
6221,-56.640625
6222,-50.781250
6223,-50.781250
6224,-56.640625
6225,-54.687500
6226,-56.640625
6227,-52.734375
6228,-54.687500
6229,-54.687500
6230,-52.734375
6231,-54.687500
6232,-54.687500
6233,-54.687500
6234,-56.640625
6235,-54.687500
6236,-54.687500
6237,-52.734375
6238,-50.781250
6239,-54.687500
6240,-52.734375
6241,-54.687500
6242,-54.687500
6243,-54.687500
6244,-54.687500
6245,-54.687500
6246,-52.734375
6247,-54.687500
6248,-50.781250
6249,-54.687500
6250,-50.781250
6251,-54.687500
6252,-52.734375
6253,-50.781250
6254,-56.640625
6255,-48.828125
6256,-50.781250
6257,-50.781250
6258,-48.828125
6259,-50.781250
6260,-48.828125
6261,-48.828125
6262,-48.828125
6263,-48.828125
6264,-48.828125
6265,-48.828125
6266,-50.781250
6267,-46.875000
6268,-48.828125
6269,-46.875000
6270,-44.921875
6271,-52.734375
6272,-44.921875
6273,-42.968750
6274,-44.921875
6275,-41.015625
6276,-41.015625
6277,-41.015625
6278,-39.062500
6279,-39.062500
6280,-39.062500
6281,-39.062500
6282,-37.109375
6283,-33.203125
6284,-39.062500
6285,-39.062500
6286,-37.109375
6287,-35.156250
6288,-35.156250
6289,-33.203125
6290,-33.203125
6291,-33.203125
6292,-33.203125
6293,-33.203125
6294,-31.250000
6295,-31.250000
6296,-31.250000
6297,-31.250000
6298,-31.250000
6299,-31.250000
6300,-31.250000
6301,-29.296875
6302,-29.296875
6303,-25.390625
6304,-27.343750
6305,-29.296875
6306,-25.390625
6307,-31.250000
6308,-23.437500
6309,-29.296875
6310,-13.671875
6311,-25.390625
6312,-27.343750
6313,-23.437500
6314,-25.390625
6315,-23.437500
6316,-25.390625
6317,-25.390625
6318,-23.437500
6319,-21.484375
6320,-19.531250
6321,-19.531250
6322,-19.531250
6323,-19.531250
6324,-21.484375
6325,-19.531250
6326,-21.484375
6327,-19.531250
6328,-19.531250
6329,-19.531250
6330,-17.578125
6331,-17.578125
6332,-19.531250
6333,-17.578125
6334,-17.578125
6335,-17.578125
6336,-17.578125
6337,-17.578125
6338,-15.625000
6339,-13.671875
6340,-17.578125
6341,-15.625000
6342,-15.625000
6343,-13.671875
6344,-15.625000
6345,-13.671875
6346,-13.671875
6347,-15.625000
6348,-13.671875
6349,-13.671875
6350,-13.671875
6351,-13.671875
6352,-13.671875
6353,-11.718750
6354,-9.765625
6355,-13.671875
6356,-9.765625
6357,-13.671875
6358,-9.765625
6359,5.859375
6360,-11.718750
6361,-9.765625
6362,-13.671875
6363,-13.671875
6364,-9.765625
6365,-9.765625
6366,-9.765625
6367,-13.671875
6368,-9.765625
6369,-13.671875
6370,-13.671875
6371,-9.765625
6372,-13.671875
6373,-13.671875
6374,-13.671875
6375,-13.671875
6376,-13.671875
6377,-13.671875
6378,-13.671875
6379,-13.671875
6380,-13.671875
6381,-13.671875
6382,-13.671875
6383,-13.671875
6384,-13.671875
6385,-13.671875
6386,-17.578125
6387,-13.671875
6388,-13.671875
6389,-13.671875
6390,-15.625000
6391,-9.765625
6392,-13.671875
6393,-13.671875
6394,-13.671875
6395,-17.578125
6396,-13.671875
6397,-13.671875
6398,-15.625000
6399,-7.812500
6400,-15.625000
6401,-13.671875
6402,-13.671875
6403,-13.671875
6404,-13.671875
6405,-15.625000
6406,-15.625000
6407,-13.671875
6408,-15.625000
6409,-15.625000
6410,-13.671875
6411,-15.625000
6412,-13.671875
6413,-15.625000
6414,-17.578125
6415,-15.625000
6416,-15.625000
6417,-15.625000
6418,-17.578125
6419,-17.578125
6420,-15.625000
6421,-17.578125
6422,-17.578125
6423,-13.671875
6424,-17.578125
6425,-15.625000
6426,-17.578125
6427,-17.578125
6428,-15.625000
6429,-17.578125
6430,-15.625000
6431,-15.625000
6432,-17.578125
6433,-13.671875
6434,-15.625000
6435,-17.578125
6436,-13.671875
6437,-17.578125
6438,-17.578125
6439,-15.625000
6440,-17.578125
6441,-15.625000
6442,-15.625000
6443,-15.625000
6444,-15.625000
6445,-17.578125
6446,-17.578125
6447,-15.625000
6448,-17.578125
6449,-13.671875
6450,-13.671875
6451,-13.671875
6452,-13.671875
6453,-17.578125
6454,-19.531250
6455,-15.625000
6456,-15.625000
6457,-13.671875
6458,-15.625000
6459,-13.671875
6460,-13.671875
6461,-13.671875
6462,-17.578125
6463,-15.625000
6464,-13.671875
6465,-17.578125
6466,-13.671875
6467,-13.671875
6468,-15.625000
6469,-13.671875
6470,-15.625000
6471,-13.671875
6472,-13.671875
6473,-13.671875
6474,-13.671875
6475,-13.671875
6476,-13.671875
6477,-13.671875
6478,-13.671875
6479,-13.671875
6480,-13.671875
6481,-13.671875
6482,-11.718750
6483,-13.671875
6484,-7.812500
6485,-11.718750
6486,-11.718750
6487,-7.812500
6488,-11.718750
6489,-7.812500
6490,-7.812500
6491,-9.765625
6492,-5.859375
6493,-5.859375
6494,-5.859375
6495,-3.906250
6496,-7.812500
6497,-3.906250
6498,-3.906250
6499,-1.953125
6500,-1.953125
6501,-3.906250
6502,0.000000
6503,-1.953125
6504,-1.953125
6505,-1.953125
6506,-3.906250
6507,-1.953125
6508,-1.953125
6509,-1.953125
6510,0.000000
6511,-1.953125
6512,0.000000
6513,-1.953125
6514,-1.953125
6515,-1.953125
6516,0.000000
6517,0.000000
6518,-1.953125
6519,0.000000
6520,-1.953125
6521,-1.953125
6522,1.953125
6523,-1.953125
6524,-1.953125
6525,-1.953125
6526,-1.953125
6527,-1.953125
6528,-1.953125
6529,0.000000
6530,-1.953125
6531,-1.953125
6532,-1.953125
6533,-3.906250
6534,-1.953125
6535,-1.953125
6536,-1.953125
6537,-1.953125
6538,-1.953125
6539,-1.953125
6540,1.953125
6541,-1.953125
6542,-1.953125
6543,-1.953125
6544,0.000000
6545,0.000000
6546,0.000000
6547,-9.765625
6548,-1.953125
6549,0.000000
6550,0.000000
6551,-1.953125
6552,1.953125
6553,-1.953125
6554,0.000000
6555,-1.953125
6556,-1.953125
6557,-1.953125
6558,-1.953125
6559,-1.953125
6560,0.000000
6561,-1.953125
6562,-1.953125
6563,-1.953125
6564,-1.953125
6565,-1.953125
6566,-1.953125
6567,0.000000
6568,0.000000
6569,-1.953125
6570,-1.953125
6571,-1.953125
6572,0.000000
6573,1.953125
6574,0.000000
6575,0.000000
6576,-1.953125
6577,-1.953125
6578,-1.953125
6579,-1.953125
6580,-1.953125
6581,-1.953125
6582,1.953125
6583,-5.859375
6584,-3.906250
6585,-3.906250
6586,-5.859375
6587,-3.906250
6588,-9.765625
6589,-7.812500
6590,-7.812500
6591,-11.718750
6592,-7.812500
6593,-11.718750
6594,-13.671875
6595,-7.812500
6596,-13.671875
6597,-13.671875
6598,-15.625000
6599,-17.578125
6600,-17.578125
6601,-19.531250
6602,-15.625000
6603,-19.531250
6604,-9.765625
6605,-19.531250
6606,-23.437500
6607,-19.531250
6608,-23.437500
6609,-23.437500
6610,-23.437500
6611,-25.390625
6612,-21.484375
6613,-29.296875
6614,-23.437500
6615,-27.343750
6616,-29.296875
6617,-29.296875
6618,-29.296875
6619,-25.390625
6620,-29.296875
6621,-33.203125
6622,-29.296875
6623,-33.203125
6624,-29.296875
6625,-31.250000
6626,-35.156250
6627,-31.250000
6628,-33.203125
6629,-29.296875
6630,-31.250000
6631,-29.296875
6632,-33.203125
6633,-33.203125
6634,-33.203125
6635,-35.156250
6636,-37.109375
6637,-33.203125
6638,-35.156250
6639,-33.203125
6640,-33.203125
6641,-35.156250
6642,-33.203125
6643,-33.203125
6644,-39.062500
6645,-33.203125
6646,-33.203125
6647,-31.250000
6648,-35.156250
6649,-35.156250
6650,-33.203125
6651,-33.203125
6652,-31.250000
6653,-21.484375
6654,-33.203125
6655,-33.203125
6656,-35.156250
6657,-33.203125
6658,-33.203125
6659,-33.203125
6660,-33.203125
6661,-33.203125
6662,-33.203125
6663,-33.203125
6664,-33.203125
6665,-35.156250
6666,-33.203125
6667,-35.156250
6668,-35.156250
6669,-33.203125
6670,-35.156250
6671,-33.203125
6672,-35.156250
6673,-35.156250
6674,-35.156250
6675,-37.109375
6676,-37.109375
6677,-33.203125
6678,-39.062500
6679,-41.015625
6680,-39.062500
6681,-37.109375
6682,-39.062500
6683,-41.015625
6684,-37.109375
6685,-41.015625
6686,-44.921875
6687,-41.015625
6688,-42.968750
6689,-44.921875
6690,-41.015625
6691,-44.921875
6692,-42.968750
6693,-44.921875
6694,-44.921875
6695,-44.921875
6696,-48.828125
6697,-44.921875
6698,-46.875000
6699,-48.828125
6700,-46.875000
6701,-48.828125
6702,-54.687500
6703,-48.828125
6704,-50.781250
6705,-48.828125
6706,-50.781250
6707,-48.828125
6708,-52.734375
6709,-48.828125
6710,-52.734375
6711,-54.687500
6712,-48.828125
6713,-54.687500
6714,-50.781250
6715,-52.734375
6716,-54.687500
6717,-54.687500
6718,-56.640625
6719,-52.734375
6720,-54.687500
6721,-54.687500
6722,-52.734375
6723,-60.546875
6724,-54.687500
6725,-54.687500
6726,-54.687500
6727,-54.687500
6728,-54.687500
6729,-52.734375
6730,-52.734375
6731,-56.640625
6732,-56.640625
6733,-54.687500
6734,-56.640625
6735,-54.687500
6736,-56.640625
6737,-54.687500
6738,-54.687500
6739,-56.640625
6740,-52.734375
6741,-58.593750
6742,-56.640625
6743,-56.640625
6744,-56.640625
6745,-56.640625
6746,-54.687500
6747,-54.687500
6748,-56.640625
6749,-56.640625
6750,-56.640625
6751,-56.640625
6752,-56.640625
6753,-54.687500
6754,-54.687500
6755,-56.640625
6756,-54.687500
6757,-56.640625
6758,-56.640625
6759,-56.640625
6760,-52.734375
6761,-54.687500
6762,-56.640625
6763,-56.640625
6764,-56.640625
6765,-56.640625
6766,-56.640625
6767,-56.640625
6768,-56.640625
6769,-56.640625
6770,-54.687500
6771,-56.640625
6772,-52.734375
6773,-56.640625
6774,-54.687500
6775,-54.687500
6776,-56.640625
6777,-52.734375
6778,-56.640625
6779,-56.640625
6780,-50.781250
6781,-56.640625
6782,-56.640625
6783,-54.687500
6784,-54.687500
6785,-56.640625
6786,-56.640625
6787,-56.640625
6788,-56.640625
6789,-56.640625
6790,-54.687500
6791,-56.640625
6792,-54.687500
6793,-54.687500
6794,-56.640625
6795,-56.640625
6796,-56.640625
6797,-54.687500
6798,-52.734375
6799,-56.640625
6800,-54.687500
6801,-56.640625
6802,-52.734375
6803,-56.640625
6804,-56.640625
6805,-56.640625
6806,-56.640625
6807,-54.687500
6808,-54.687500
6809,-58.593750
6810,-54.687500
6811,-56.640625
6812,-54.687500
6813,-56.640625
6814,-54.687500
6815,-56.640625
6816,-56.640625
6817,-54.687500
6818,-54.687500
6819,-56.640625
6820,-54.687500
6821,-56.640625
6822,-54.687500
6823,-56.640625
6824,-56.640625
6825,-54.687500
6826,-56.640625
6827,-56.640625
6828,-56.640625
6829,-56.640625
6830,-54.687500
6831,-60.546875
6832,-56.640625
6833,-54.687500
6834,-56.640625
6835,-54.687500
6836,-52.734375
6837,-54.687500
6838,-54.687500
6839,-60.546875
6840,-64.453125
6841,-56.640625
6842,-56.640625
6843,-54.687500
6844,-56.640625
6845,-50.781250
6846,-54.687500
6847,-52.734375
6848,-54.687500
6849,-56.640625
6850,-56.640625
6851,-56.640625
6852,-54.687500
6853,-54.687500
6854,-52.734375
6855,-52.734375
6856,-56.640625
6857,-56.640625
6858,-52.734375
6859,-48.828125
6860,-54.687500
6861,-56.640625
6862,-54.687500
6863,-54.687500
6864,-54.687500
6865,-54.687500
6866,-54.687500
6867,-50.781250
6868,-56.640625
6869,-56.640625
6870,-54.687500
6871,-56.640625
6872,-52.734375
6873,-52.734375
6874,-52.734375
6875,-52.734375
6876,-56.640625
6877,-52.734375
6878,-56.640625
6879,-56.640625
6880,-52.734375
6881,-54.687500
6882,-54.687500
6883,-56.640625
6884,-56.640625
6885,-52.734375
6886,-56.640625
6887,-56.640625
6888,-54.687500
6889,-52.734375
6890,-56.640625
6891,-56.640625
6892,-54.687500
6893,-52.734375
6894,-54.687500
6895,-54.687500
6896,-52.734375
6897,-52.734375
6898,-48.828125
6899,-52.734375
6900,-50.781250
6901,-50.781250
6902,-48.828125
6903,-52.734375
6904,-48.828125
6905,-48.828125
6906,-50.781250
6907,-48.828125
6908,-46.875000
6909,-50.781250
6910,-44.921875
6911,-50.781250
6912,-48.828125
6913,-50.781250
6914,-46.875000
6915,-48.828125
6916,-46.875000
6917,-46.875000
6918,-50.781250
6919,-46.875000
6920,-52.734375
6921,-44.921875
6922,-50.781250
6923,-50.781250
6924,-44.921875
6925,-50.781250
6926,-46.875000
6927,-48.828125
6928,-48.828125
6929,-44.921875
6930,-52.734375
6931,-48.828125
6932,-48.828125
6933,-48.828125
6934,-48.828125
6935,-48.828125
6936,-48.828125
6937,-48.828125
6938,-60.546875
6939,-46.875000
6940,-46.875000
6941,-48.828125
6942,-48.828125
6943,-48.828125
6944,-48.828125
6945,-44.921875
6946,-46.875000
6947,-44.921875
6948,-46.875000
6949,-46.875000
6950,-46.875000
6951,-48.828125
6952,-46.875000
6953,-50.781250
6954,-48.828125
6955,-46.875000
6956,-48.828125
6957,-48.828125
6958,-48.828125
6959,-48.828125
6960,-46.875000
6961,-48.828125
6962,-46.875000
6963,-48.828125
6964,-46.875000
6965,-48.828125
6966,-48.828125
6967,-46.875000
6968,-50.781250
6969,-60.546875
6970,-46.875000
6971,-48.828125
6972,-46.875000
6973,-46.875000
6974,-48.828125
6975,-48.828125
6976,-50.781250
6977,-48.828125
6978,-41.015625
6979,-48.828125
6980,-44.921875
6981,-52.734375
6982,-44.921875
6983,-50.781250
6984,-48.828125
6985,-48.828125
6986,-50.781250
6987,-46.875000
6988,-50.781250
6989,-48.828125
6990,-48.828125
6991,-50.781250
6992,-46.875000
6993,-44.921875
6994,-46.875000
6995,-52.734375
6996,-48.828125
6997,-54.687500
6998,-48.828125
6999,-48.828125
7000,-44.921875
7001,-48.828125
7002,-48.828125
7003,-46.875000
7004,-50.781250
7005,-46.875000
7006,-48.828125
7007,-46.875000
7008,-48.828125
7009,-48.828125
7010,-46.875000
7011,-46.875000
7012,-48.828125
7013,-46.875000
7014,-46.875000
7015,-48.828125
7016,-50.781250
7017,-46.875000
7018,-54.687500
7019,-48.828125
7020,-48.828125
7021,-48.828125
7022,-48.828125
7023,-48.828125
7024,-46.875000
7025,-48.828125
7026,-48.828125
7027,-48.828125
7028,-48.828125
7029,-46.875000
7030,-46.875000
7031,-48.828125
7032,-48.828125
7033,-48.828125
7034,-48.828125
7035,-46.875000
7036,-50.781250
7037,-46.875000
7038,-48.828125
7039,-48.828125
7040,-46.875000
7041,-50.781250
7042,-44.921875
7043,-46.875000
7044,-50.781250
7045,-46.875000
7046,-48.828125
7047,-46.875000
7048,-48.828125
7049,-48.828125
7050,-46.875000
7051,-50.781250
7052,-48.828125
7053,-50.781250
7054,-50.781250
7055,-48.828125
7056,-48.828125
7057,-48.828125
7058,-48.828125
7059,-48.828125
7060,-46.875000
7061,-48.828125
7062,-46.875000
7063,-48.828125
7064,-48.828125
7065,-48.828125
7066,-48.828125
7067,-46.875000
7068,-46.875000
7069,-48.828125
7070,-48.828125
7071,-48.828125
7072,-48.828125
7073,-50.781250
7074,-48.828125
7075,-50.781250
7076,-50.781250
7077,-48.828125
7078,-50.781250
7079,-48.828125
7080,-48.828125
7081,-52.734375
7082,-48.828125
7083,-52.734375
7084,-46.875000
7085,-48.828125
7086,-48.828125
7087,-48.828125
7088,-54.687500
7089,-52.734375
7090,-52.734375
7091,-52.734375
7092,-50.781250
7093,-54.687500
7094,-50.781250
7095,-50.781250
7096,-54.687500
7097,-50.781250
7098,-54.687500
7099,-52.734375
7100,-54.687500
7101,-54.687500
7102,-52.734375
7103,-52.734375
7104,-50.781250
7105,-50.781250
7106,-54.687500
7107,-60.546875
7108,-54.687500
7109,-54.687500
7110,-54.687500
7111,-52.734375
7112,-48.828125
7113,-54.687500
7114,-52.734375
7115,-50.781250
7116,-52.734375
7117,-54.687500
7118,-54.687500
7119,-54.687500
7120,-54.687500
7121,-54.687500
7122,-50.781250
7123,-56.640625
7124,-50.781250
7125,-54.687500
7126,-54.687500
7127,-54.687500
7128,-54.687500
7129,-54.687500
7130,-52.734375
7131,-50.781250
7132,-52.734375
7133,-50.781250
7134,-48.828125
7135,-54.687500
7136,-54.687500
7137,-54.687500
7138,-54.687500
7139,-54.687500
7140,-50.781250
7141,-54.687500
7142,-52.734375
7143,-52.734375
7144,-52.734375
7145,-52.734375
7146,-54.687500
7147,-56.640625
7148,-52.734375
7149,-54.687500
7150,-50.781250
7151,-54.687500
7152,-50.781250
7153,-54.687500
7154,-54.687500
7155,-52.734375
7156,-56.640625
7157,-52.734375
7158,-54.687500
7159,-54.687500
7160,-50.781250
7161,-52.734375
7162,-52.734375
7163,-54.687500
7164,-48.828125
7165,-52.734375
7166,-52.734375
7167,-48.828125
7168,-52.734375
7169,-46.875000
7170,-48.828125
7171,-48.828125
7172,-44.921875
7173,-46.875000
7174,-46.875000
7175,-46.875000
7176,-44.921875
7177,-42.968750
7178,-44.921875
7179,-41.015625
7180,-44.921875
7181,-42.968750
7182,-41.015625
7183,-44.921875
7184,-41.015625
7185,-41.015625
7186,-41.015625
7187,-39.062500
7188,-41.015625
7189,-41.015625
7190,-41.015625
7191,-39.062500
7192,-41.015625
7193,-37.109375
7194,-35.156250
7195,-39.062500
7196,-39.062500
7197,-39.062500
7198,-35.156250
7199,-39.062500
7200,-35.156250
7201,-37.109375
7202,-35.156250
7203,-35.156250
7204,-35.156250
7205,-35.156250
7206,-33.203125
7207,-33.203125
7208,-33.203125
7209,-33.203125
7210,-33.203125
7211,-33.203125
7212,-31.250000
7213,-31.250000
7214,-31.250000
7215,-29.296875
7216,-29.296875
7217,-29.296875
7218,-29.296875
7219,-29.296875
7220,-27.343750
7221,-29.296875
7222,-29.296875
7223,-25.390625
7224,-25.390625
7225,-27.343750
7226,-25.390625
7227,-19.531250
7228,-25.390625
7229,-25.390625
7230,-23.437500
7231,-25.390625
7232,-25.390625
7233,-21.484375
7234,-25.390625
7235,-21.484375
7236,-23.437500
7237,-21.484375
7238,-21.484375
7239,-21.484375
7240,-19.531250
7241,-25.390625
7242,-19.531250
7243,-19.531250
7244,-19.531250
7245,-17.578125
7246,-19.531250
7247,-19.531250
7248,-19.531250
7249,-17.578125
7250,-17.578125
7251,-17.578125
7252,-19.531250
7253,-15.625000
7254,-23.437500
7255,-15.625000
7256,-15.625000
7257,-15.625000
7258,-25.390625
7259,-17.578125
7260,-15.625000
7261,-15.625000
7262,-17.578125
7263,-13.671875
7264,-17.578125
7265,-11.718750
7266,-13.671875
7267,-15.625000
7268,-15.625000
7269,-15.625000
7270,-3.906250
7271,-15.625000
7272,-13.671875
7273,-15.625000
7274,-13.671875
7275,-13.671875
7276,-17.578125
7277,-13.671875
7278,-17.578125
7279,-17.578125
7280,-13.671875
7281,-17.578125
7282,-17.578125
7283,-17.578125
7284,-17.578125
7285,-23.437500
7286,-17.578125
7287,-19.531250
7288,-19.531250
7289,-19.531250
7290,-19.531250
7291,-19.531250
7292,-17.578125
7293,-17.578125
7294,-19.531250
7295,-17.578125
7296,-17.578125
7297,-17.578125
7298,-23.437500
7299,-19.531250
7300,-17.578125
7301,-17.578125
7302,-17.578125
7303,-15.625000
7304,-17.578125
7305,-15.625000
7306,-17.578125
7307,-29.296875
7308,-15.625000
7309,-15.625000
7310,-13.671875
7311,-17.578125
7312,-15.625000
7313,-15.625000
7314,-15.625000
7315,-15.625000
7316,-17.578125
7317,-13.671875
7318,-15.625000
7319,-17.578125
7320,-15.625000
7321,-17.578125
7322,-17.578125
7323,-15.625000
7324,-19.531250
7325,-15.625000
7326,-15.625000
7327,-19.531250
7328,-17.578125
7329,-17.578125
7330,-15.625000
7331,-17.578125
7332,-17.578125
7333,-17.578125
7334,-15.625000
7335,-13.671875
7336,-19.531250
7337,-17.578125
7338,-9.765625
7339,-23.437500
7340,-15.625000
7341,-17.578125
7342,-15.625000
7343,-17.578125
7344,-19.531250
7345,-17.578125
7346,-19.531250
7347,-17.578125
7348,-17.578125
7349,-17.578125
7350,-17.578125
7351,-17.578125
7352,-17.578125
7353,-19.531250
7354,-17.578125
7355,-17.578125
7356,-19.531250
7357,-17.578125
7358,-17.578125
7359,-19.531250
7360,-17.578125
7361,-17.578125
7362,-17.578125
7363,-17.578125
7364,-19.531250
7365,-17.578125
7366,-19.531250
7367,-17.578125
7368,-19.531250
7369,-19.531250
7370,-19.531250
7371,-19.531250
7372,-17.578125
7373,-19.531250
7374,-21.484375
7375,-17.578125
7376,-19.531250
7377,-17.578125
7378,-19.531250
7379,-17.578125
7380,-17.578125
7381,-19.531250
7382,-17.578125
7383,-19.531250
7384,-19.531250
7385,-17.578125
7386,-19.531250
7387,-17.578125
7388,-17.578125
7389,-19.531250
7390,-17.578125
7391,-17.578125
7392,-17.578125
7393,-15.625000
7394,-19.531250
7395,-17.578125
7396,-19.531250
7397,-17.578125
7398,-15.625000
7399,-17.578125
7400,-17.578125
7401,-17.578125
7402,-17.578125
7403,-19.531250
7404,-21.484375
7405,-17.578125
7406,-19.531250
7407,-17.578125
7408,-17.578125
7409,-17.578125
7410,-17.578125
7411,-17.578125
7412,-17.578125
7413,-19.531250
7414,-15.625000
7415,-19.531250
7416,-17.578125
7417,-17.578125
7418,-17.578125
7419,-17.578125
7420,-19.531250
7421,-17.578125
7422,-21.484375
7423,-19.531250
7424,-17.578125
7425,-21.484375
7426,-17.578125
7427,-19.531250
7428,-19.531250
7429,-17.578125
7430,-21.484375
7431,-17.578125
7432,-19.531250
7433,-19.531250
7434,-17.578125
7435,-19.531250
7436,-19.531250
7437,-19.531250
7438,-17.578125
7439,-21.484375
7440,-17.578125
7441,-19.531250
7442,-17.578125
7443,-17.578125
7444,-19.531250
7445,-17.578125
7446,-19.531250
7447,-17.578125
7448,-19.531250
7449,-17.578125
7450,-15.625000
7451,-21.484375
7452,-17.578125
7453,-17.578125
7454,-19.531250
7455,-19.531250
7456,-19.531250
7457,-19.531250
7458,-21.484375
7459,-21.484375
7460,-17.578125
7461,-21.484375
7462,-21.484375
7463,-19.531250
7464,-17.578125
7465,-21.484375
7466,-23.437500
7467,-19.531250
7468,-21.484375
7469,-23.437500
7470,-19.531250
7471,-25.390625
7472,-17.578125
7473,-23.437500
7474,-25.390625
7475,-25.390625
7476,-29.296875
7477,-23.437500
7478,-25.390625
7479,-23.437500
7480,-7.812500
7481,-25.390625
7482,-25.390625
7483,-27.343750
7484,-27.343750
7485,-25.390625
7486,-29.296875
7487,-25.390625
7488,-29.296875
7489,-27.343750
7490,-29.296875
7491,-29.296875
7492,-29.296875
7493,-29.296875
7494,-29.296875
7495,-29.296875
7496,-29.296875
7497,-31.250000
7498,-29.296875
7499,-31.250000
7500,-29.296875
7501,-31.250000
7502,-29.296875
7503,-29.296875
7504,-29.296875
7505,-29.296875
7506,-29.296875
7507,-42.968750
7508,-29.296875
7509,-29.296875
7510,-29.296875
7511,-31.250000
7512,-29.296875
7513,-31.250000
7514,-29.296875
7515,-33.203125
7516,-31.250000
7517,-29.296875
7518,-31.250000
7519,-31.250000
7520,-31.250000
7521,-29.296875
7522,-31.250000
7523,-33.203125
7524,-31.250000
7525,-21.484375
7526,-33.203125
7527,-33.203125
7528,-33.203125
7529,-35.156250
7530,-33.203125
7531,-35.156250
7532,-35.156250
7533,-33.203125
7534,-35.156250
7535,-35.156250
7536,-37.109375
7537,-35.156250
7538,-35.156250
7539,-41.015625
7540,-35.156250
7541,-41.015625
7542,-37.109375
7543,-42.968750
7544,-37.109375
7545,-33.203125
7546,-39.062500
7547,-35.156250
7548,-39.062500
7549,-39.062500
7550,-39.062500
7551,-39.062500
7552,-35.156250
7553,-39.062500
7554,-39.062500
7555,-41.015625
7556,-50.781250
7557,-39.062500
7558,-42.968750
7559,-41.015625
7560,-41.015625
7561,-41.015625
7562,-41.015625
7563,-44.921875
7564,-42.968750
7565,-41.015625
7566,-44.921875
7567,-44.921875
7568,-44.921875
7569,-44.921875
7570,-44.921875
7571,-44.921875
7572,-44.921875
7573,-44.921875
7574,-48.828125
7575,-48.828125
7576,-50.781250
7577,-48.828125
7578,-46.875000
7579,-48.828125
7580,-50.781250
7581,-52.734375
7582,-48.828125
7583,-54.687500
7584,-48.828125
7585,-54.687500
7586,-52.734375
7587,-54.687500
7588,-54.687500
7589,-54.687500
7590,-54.687500
7591,-56.640625
7592,-52.734375
7593,-54.687500
7594,-54.687500
7595,-56.640625
7596,-54.687500
7597,-56.640625
7598,-56.640625
7599,-56.640625
7600,-54.687500
7601,-56.640625
7602,-54.687500
7603,-56.640625
7604,-54.687500
7605,-56.640625
7606,-56.640625
7607,-56.640625
7608,-56.640625
7609,-56.640625
7610,-56.640625
7611,-56.640625
7612,-56.640625
7613,-58.593750
7614,-41.015625
7615,-60.546875
7616,-60.546875
7617,-56.640625
7618,-58.593750
7619,-56.640625
7620,-56.640625
7621,-56.640625
7622,-56.640625
7623,-60.546875
7624,-56.640625
7625,-58.593750
7626,-56.640625
7627,-56.640625
7628,-54.687500
7629,-56.640625
7630,-56.640625
7631,-56.640625
7632,-56.640625
7633,-56.640625
7634,-56.640625
7635,-58.593750
7636,-56.640625
7637,-56.640625
7638,-56.640625
7639,-56.640625
7640,-56.640625
7641,-56.640625
7642,-56.640625
7643,-56.640625
7644,-54.687500
7645,-56.640625
7646,-56.640625
7647,-56.640625
7648,-56.640625
7649,-56.640625
7650,-56.640625
7651,-56.640625
7652,-54.687500
7653,-56.640625
7654,-56.640625
7655,-56.640625
7656,-56.640625
7657,-54.687500
7658,-58.593750
7659,-56.640625
7660,-60.546875
7661,-54.687500
7662,-56.640625
7663,-54.687500
7664,-56.640625
7665,-56.640625
7666,-54.687500
7667,-56.640625
7668,-56.640625
7669,-56.640625
7670,-56.640625
7671,-56.640625
7672,-60.546875
7673,-56.640625
7674,-60.546875
7675,-56.640625
7676,-56.640625
7677,-56.640625
7678,-56.640625
7679,-60.546875
7680,-56.640625
7681,-56.640625
7682,-56.640625
7683,-56.640625
7684,-56.640625
7685,-56.640625
7686,-56.640625
7687,-56.640625
7688,-60.546875
7689,-56.640625
7690,-58.593750
7691,-56.640625
7692,-56.640625
7693,-56.640625
7694,-66.406250
7695,-56.640625
7696,-56.640625
7697,-54.687500
7698,-56.640625
7699,-56.640625
7700,-56.640625
7701,-56.640625
7702,-56.640625
7703,-56.640625
7704,-56.640625
7705,-56.640625
7706,-56.640625
7707,-56.640625
7708,-56.640625
7709,-54.687500
7710,-56.640625
7711,-56.640625
7712,-56.640625
7713,-56.640625
7714,-56.640625
7715,-56.640625
7716,-56.640625
7717,-56.640625
7718,-70.312500
7719,-56.640625
7720,-56.640625
7721,-60.546875
7722,-56.640625
7723,-58.593750
7724,-56.640625
7725,-56.640625
7726,-56.640625
7727,-56.640625
7728,-56.640625
7729,-56.640625
7730,-58.593750
7731,-56.640625
7732,-56.640625
7733,-56.640625
7734,-66.406250
7735,-60.546875
7736,-56.640625
7737,-56.640625
7738,-56.640625
7739,-56.640625
7740,-56.640625
7741,-56.640625
7742,-56.640625
7743,-46.875000
7744,-56.640625
7745,-54.687500
7746,-58.593750
7747,-56.640625
7748,-56.640625
7749,-54.687500
7750,-56.640625
7751,-56.640625
7752,-52.734375
7753,-56.640625
7754,-54.687500
7755,-60.546875
7756,-56.640625
7757,-56.640625
7758,-56.640625
7759,-56.640625
7760,-60.546875
7761,-60.546875
7762,-60.546875
7763,-56.640625
7764,-56.640625
7765,-60.546875
7766,-56.640625
7767,-56.640625
7768,-60.546875
7769,-58.593750
7770,-58.593750
7771,-56.640625
7772,-56.640625
7773,-60.546875
7774,-56.640625
7775,-58.593750
7776,-56.640625
7777,-56.640625
7778,-56.640625
7779,-56.640625
7780,-56.640625
7781,-56.640625
7782,-58.593750
7783,-60.546875
7784,-54.687500
7785,-60.546875
7786,-56.640625
7787,-56.640625
7788,-60.546875
7789,-56.640625
7790,-56.640625
7791,-56.640625
7792,-72.265625
7793,-56.640625
7794,-56.640625
7795,-56.640625
7796,-56.640625
7797,-56.640625
7798,-56.640625
7799,-56.640625
7800,-56.640625
7801,-56.640625
7802,-56.640625
7803,-56.640625
7804,-56.640625
7805,-56.640625
7806,-58.593750
7807,-54.687500
7808,-56.640625
7809,-54.687500
7810,-48.828125
7811,-56.640625
7812,-54.687500
7813,-56.640625
7814,-52.734375
7815,-58.593750
7816,-52.734375
7817,-52.734375
7818,-54.687500
7819,-54.687500
7820,-54.687500
7821,-50.781250
7822,-54.687500
7823,-52.734375
7824,-52.734375
7825,-52.734375
7826,-48.828125
7827,-50.781250
7828,-52.734375
7829,-48.828125
7830,-52.734375
7831,-48.828125
7832,-50.781250
7833,-48.828125
7834,-48.828125
7835,-48.828125
7836,-48.828125
7837,-52.734375
7838,-48.828125
7839,-48.828125
7840,-48.828125
7841,-50.781250
7842,-48.828125
7843,-48.828125
7844,-48.828125
7845,-48.828125
7846,-50.781250
7847,-46.875000
7848,-50.781250
7849,-48.828125
7850,-46.875000
7851,-48.828125
7852,-48.828125
7853,-48.828125
7854,-44.921875
7855,-50.781250
7856,-48.828125
7857,-48.828125
7858,-48.828125
7859,-50.781250
7860,-48.828125
7861,-46.875000
7862,-48.828125
7863,-46.875000
7864,-48.828125
7865,-48.828125
7866,-48.828125
7867,-48.828125
7868,-52.734375
7869,-48.828125
7870,-50.781250
7871,-48.828125
7872,-50.781250
7873,-50.781250
7874,-50.781250
7875,-48.828125
7876,-48.828125
7877,-48.828125
7878,-46.875000
7879,-48.828125
7880,-44.921875
7881,-50.781250
7882,-48.828125
7883,-48.828125
7884,-48.828125
7885,-50.781250
7886,-52.734375
7887,-50.781250
7888,-50.781250
7889,-44.921875
7890,-48.828125
7891,-46.875000
7892,-48.828125
7893,-52.734375
7894,-48.828125
7895,-48.828125
7896,-48.828125
7897,-46.875000
7898,-46.875000
7899,-54.687500
7900,-50.781250
7901,-46.875000
7902,-48.828125
7903,-48.828125
7904,-48.828125
7905,-48.828125
7906,-48.828125
7907,-46.875000
7908,-46.875000
7909,-48.828125
7910,-48.828125
7911,-46.875000
7912,-48.828125
7913,-48.828125
7914,-48.828125
7915,-46.875000
7916,-46.875000
7917,-48.828125
7918,-46.875000
7919,-48.828125
7920,-48.828125
7921,-48.828125
7922,-48.828125
7923,-48.828125
7924,-50.781250
7925,-48.828125
7926,-48.828125
7927,-52.734375
7928,-46.875000
7929,-50.781250
7930,-48.828125
7931,-46.875000
7932,-50.781250
7933,-46.875000
7934,-48.828125
7935,-48.828125
7936,-48.828125
7937,-46.875000
7938,-52.734375
7939,-44.921875
7940,-44.921875
7941,-48.828125
7942,-48.828125
7943,-52.734375
7944,-46.875000
7945,-50.781250
7946,-48.828125
7947,-46.875000
7948,-48.828125
7949,-41.015625
7950,-48.828125
7951,-50.781250
7952,-44.921875
7953,-48.828125
7954,-48.828125
7955,-48.828125
7956,-50.781250
7957,-52.734375
7958,-48.828125
7959,-48.828125
7960,-50.781250
7961,-48.828125
7962,-46.875000
7963,-48.828125
7964,-48.828125
7965,-48.828125
7966,-48.828125
7967,-48.828125
7968,-50.781250
7969,-48.828125
7970,-50.781250
7971,-50.781250
7972,-48.828125
7973,-50.781250
7974,-48.828125
7975,-50.781250
7976,-50.781250
7977,-48.828125
7978,-52.734375
7979,-48.828125
7980,-52.734375
7981,-48.828125
7982,-50.781250
7983,-50.781250
7984,-48.828125
7985,-48.828125
7986,-52.734375
7987,-50.781250
7988,-50.781250
7989,-48.828125
7990,-52.734375
7991,-48.828125
7992,-48.828125
7993,-48.828125
7994,-48.828125
7995,-48.828125
7996,-48.828125
7997,-54.687500
7998,-48.828125
7999,-46.875000
8000,-48.828125
8001,-48.828125
8002,-48.828125
8003,-48.828125
8004,-46.875000
8005,-50.781250
8006,-50.781250
8007,-48.828125
8008,-50.781250
8009,-48.828125
8010,-50.781250
8011,-48.828125
8012,-48.828125
8013,-50.781250
8014,-48.828125
8015,-54.687500
8016,-48.828125
8017,-48.828125
8018,-48.828125
8019,-48.828125
8020,-48.828125
8021,-48.828125
8022,-50.781250
8023,-48.828125
8024,-56.640625
8025,-50.781250
8026,-46.875000
8027,-54.687500
8028,-48.828125
8029,-50.781250
8030,-50.781250
8031,-48.828125
8032,-46.875000
8033,-48.828125
8034,-48.828125
8035,-48.828125
8036,-48.828125
8037,-50.781250
8038,-48.828125
8039,-48.828125
8040,-52.734375
8041,-48.828125
8042,-48.828125
8043,-52.734375
8044,-46.875000
8045,-54.687500
8046,-54.687500
8047,-50.781250
8048,-48.828125
8049,-50.781250
8050,-52.734375
8051,-52.734375
8052,-50.781250
8053,-50.781250
8054,-48.828125
8055,-50.781250
8056,-48.828125
8057,-48.828125
8058,-48.828125
8059,-44.921875
8060,-50.781250
8061,-44.921875
8062,-44.921875
8063,-46.875000
8064,-44.921875
8065,-44.921875
8066,-44.921875
8067,-44.921875
8068,-44.921875
8069,-41.015625
8070,-42.968750
8071,-41.015625
8072,-41.015625
8073,-41.015625
8074,-39.062500
8075,-41.015625
8076,-39.062500
8077,-41.015625
8078,-41.015625
8079,-33.203125
8080,-39.062500
8081,-35.156250
8082,-37.109375
8083,-35.156250
8084,-33.203125
8085,-35.156250
8086,-33.203125
8087,-35.156250
8088,-31.250000
8089,-33.203125
8090,-33.203125
8091,-33.203125
8092,-31.250000
8093,-29.296875
8094,-29.296875
8095,-27.343750
8096,-29.296875
8097,-25.390625
8098,-31.250000
8099,-29.296875
8100,-31.250000
8101,-29.296875
8102,-25.390625
8103,-29.296875
8104,-23.437500
8105,-25.390625
8106,-23.437500
8107,-23.437500
8108,-33.203125
8109,-23.437500
8110,-21.484375
8111,-23.437500
8112,-21.484375
8113,-23.437500
8114,-21.484375
8115,-19.531250
8116,-27.343750
8117,-17.578125
8118,-19.531250
8119,-17.578125
8120,-17.578125
8121,-19.531250
8122,-17.578125
8123,-17.578125
8124,-17.578125
8125,-17.578125
8126,-17.578125
8127,-15.625000
8128,-17.578125
8129,-13.671875
8130,-15.625000
8131,-17.578125
8132,-13.671875
8133,-15.625000
8134,-15.625000
8135,-17.578125
8136,-17.578125
8137,-13.671875
8138,-13.671875
8139,-15.625000
8140,-13.671875
8141,-13.671875
8142,-13.671875
8143,-13.671875
8144,-13.671875
8145,-9.765625
8146,-11.718750
8147,-11.718750
8148,-13.671875
8149,-13.671875
8150,-13.671875
8151,-13.671875
8152,-9.765625
8153,-13.671875
8154,-9.765625
8155,-11.718750
8156,-13.671875
8157,-13.671875
8158,-13.671875
8159,-9.765625
8160,-13.671875
8161,-13.671875
8162,-9.765625
8163,-13.671875
8164,-11.718750
8165,-13.671875
8166,-19.531250
8167,-9.765625
8168,-13.671875
8169,-9.765625
8170,-11.718750
8171,-9.765625
8172,-9.765625
8173,-13.671875
8174,-13.671875
8175,-13.671875
8176,-13.671875
8177,-9.765625
8178,-15.625000
8179,-9.765625
8180,-13.671875
8181,-13.671875
8182,-9.765625
8183,-9.765625
8184,-9.765625
8185,-13.671875
8186,-13.671875
8187,-13.671875
8188,-9.765625
8189,-13.671875
8190,-13.671875
8191,-13.671875
8192,-15.625000
8193,-9.765625
8194,-13.671875
8195,-13.671875
8196,-13.671875
8197,-15.625000
8198,-13.671875
8199,-15.625000
8200,-13.671875
8201,-13.671875
8202,-13.671875
8203,-13.671875
8204,-15.625000
8205,-13.671875
8206,-15.625000
8207,-15.625000
8208,-13.671875
8209,-15.625000
8210,-13.671875
8211,-13.671875
8212,-13.671875
8213,-13.671875
8214,-13.671875
8215,-15.625000
8216,-13.671875
8217,-15.625000
8218,-13.671875
8219,-15.625000
8220,-13.671875
8221,-15.625000
8222,-17.578125
8223,-13.671875
8224,-15.625000
8225,-15.625000
8226,-17.578125
8227,-17.578125
8228,-15.625000
8229,-17.578125
8230,-15.625000
8231,-17.578125
8232,-15.625000
8233,-13.671875
8234,-19.531250
8235,-17.578125
8236,-19.531250
8237,-17.578125
8238,-19.531250
8239,-17.578125
8240,-15.625000
8241,-17.578125
8242,-19.531250
8243,-17.578125
8244,-17.578125
8245,-15.625000
8246,-17.578125
8247,-19.531250
8248,-15.625000
8249,-15.625000
8250,-17.578125
8251,-15.625000
8252,-17.578125
8253,-13.671875
8254,-17.578125
8255,-17.578125
8256,-13.671875
8257,-17.578125
8258,-17.578125
8259,-17.578125
8260,-17.578125
8261,-15.625000
8262,-13.671875
8263,-17.578125
8264,-15.625000
8265,-17.578125
8266,-19.531250
8267,-15.625000
8268,-17.578125
8269,-19.531250
8270,-21.484375
8271,-19.531250
8272,-19.531250
8273,-15.625000
8274,-19.531250
8275,-19.531250
8276,-19.531250
8277,-21.484375
8278,-19.531250
8279,-19.531250
8280,-21.484375
8281,-17.578125
8282,-19.531250
8283,-17.578125
8284,-19.531250
8285,-19.531250
8286,-19.531250
8287,-19.531250
8288,-17.578125
8289,-19.531250
8290,-17.578125
8291,-17.578125
8292,-21.484375
8293,-17.578125
8294,-19.531250
8295,-19.531250
8296,-17.578125
8297,-23.437500
8298,-19.531250
8299,-19.531250
8300,-17.578125
8301,-19.531250
8302,-19.531250
8303,-17.578125
8304,-17.578125
8305,-19.531250
8306,-17.578125
8307,-19.531250
8308,-19.531250
8309,-23.437500
8310,-19.531250
8311,-19.531250
8312,-19.531250
8313,-19.531250
8314,-21.484375
8315,-19.531250
8316,-17.578125
8317,-21.484375
8318,-17.578125
8319,-19.531250
8320,-19.531250
8321,-21.484375
8322,-21.484375
8323,-17.578125
8324,-19.531250
8325,-17.578125
8326,-19.531250
8327,-19.531250
8328,-17.578125
8329,-19.531250
8330,-19.531250
8331,-17.578125
8332,-19.531250
8333,-17.578125
8334,-19.531250
8335,-19.531250
8336,-17.578125
8337,-19.531250
8338,-17.578125
8339,-17.578125
8340,-17.578125
8341,-17.578125
8342,-23.437500
8343,-17.578125
8344,-21.484375
8345,-17.578125
8346,-17.578125
8347,-19.531250
8348,-19.531250
8349,-17.578125
8350,-19.531250
8351,-17.578125
8352,-19.531250
8353,-17.578125
8354,-17.578125
8355,-19.531250
8356,-17.578125
8357,-17.578125
8358,-19.531250
8359,-17.578125
8360,-19.531250
8361,-17.578125
8362,-19.531250
8363,-17.578125
8364,-19.531250
8365,-21.484375
8366,-17.578125
8367,-19.531250
8368,-21.484375
8369,-19.531250
8370,-23.437500
8371,-17.578125
8372,-21.484375
8373,-19.531250
8374,-19.531250
8375,-21.484375
8376,-9.765625
8377,-19.531250
8378,-17.578125
8379,-17.578125
8380,-17.578125
8381,-19.531250
8382,-21.484375
8383,-19.531250
8384,-19.531250
8385,-21.484375
8386,-21.484375
8387,-21.484375
8388,-19.531250
8389,-19.531250
8390,-17.578125
8391,-21.484375
8392,-23.437500
8393,-7.812500
8394,-21.484375
8395,-21.484375
8396,-21.484375
8397,-21.484375
8398,-23.437500
8399,-21.484375
8400,-23.437500
8401,-23.437500
8402,-23.437500
8403,-25.390625
8404,-25.390625
8405,-15.625000
8406,-25.390625
8407,-25.390625
8408,-23.437500
8409,-25.390625
8410,-27.343750
8411,-29.296875
8412,-29.296875
8413,-29.296875
8414,-29.296875
8415,-29.296875
8416,-33.203125
8417,-29.296875
8418,-31.250000
8419,-31.250000
8420,-29.296875
8421,-33.203125
8422,-29.296875
8423,-33.203125
8424,-33.203125
8425,-31.250000
8426,-35.156250
8427,-31.250000
8428,-35.156250
8429,-33.203125
8430,-33.203125
8431,-35.156250
8432,-33.203125
8433,-33.203125
8434,-33.203125
8435,-33.203125
8436,-33.203125
8437,-35.156250
8438,-33.203125
8439,-35.156250
8440,-33.203125
8441,-33.203125
8442,-35.156250
8443,-33.203125
8444,-35.156250
8445,-33.203125
8446,-33.203125
8447,-37.109375
8448,-33.203125
8449,-35.156250
8450,-35.156250
8451,-41.015625
8452,-35.156250
8453,-35.156250
8454,-37.109375
8455,-37.109375
8456,-37.109375
8457,-37.109375
8458,-35.156250
8459,-39.062500
8460,-39.062500
8461,-37.109375
8462,-37.109375
8463,-35.156250
8464,-37.109375
8465,-39.062500
8466,-37.109375
8467,-41.015625
8468,-37.109375
8469,-37.109375
8470,-41.015625
8471,-37.109375
8472,-39.062500
8473,-37.109375
8474,-39.062500
8475,-39.062500
8476,-39.062500
8477,-42.968750
8478,-37.109375
8479,-39.062500
8480,-41.015625
8481,-39.062500
8482,-37.109375
8483,-39.062500
8484,-39.062500
8485,-41.015625
8486,-37.109375
8487,-41.015625
8488,-39.062500
8489,-37.109375
8490,-41.015625
8491,-39.062500
8492,-39.062500
8493,-39.062500
8494,-39.062500
8495,-39.062500
8496,-35.156250
8497,-39.062500
8498,-39.062500
8499,-39.062500
8500,-35.156250
8501,-37.109375
8502,-39.062500
8503,-39.062500
8504,-41.015625
8505,-41.015625
8506,-37.109375
8507,-41.015625
8508,-37.109375
8509,-39.062500
8510,-41.015625
8511,-39.062500
8512,-39.062500
8513,-39.062500
8514,-39.062500
8515,-44.921875
8516,-37.109375
8517,-41.015625
8518,-37.109375
8519,-39.062500
8520,-41.015625
8521,-41.015625
8522,-41.015625
8523,-39.062500
8524,-41.015625
8525,-41.015625
8526,-39.062500
8527,-41.015625
8528,-39.062500
8529,-41.015625
8530,-41.015625
8531,-39.062500
8532,-44.921875
8533,-39.062500
8534,-41.015625
8535,-44.921875
8536,-37.109375
8537,-42.968750
8538,-41.015625
8539,-41.015625
8540,-41.015625
8541,-41.015625
8542,-44.921875
8543,-44.921875
8544,-44.921875
8545,-44.921875
8546,-41.015625
8547,-44.921875
8548,-44.921875
8549,-48.828125
8550,-46.875000
8551,-46.875000
8552,-42.968750
8553,-46.875000
8554,-48.828125
8555,-48.828125
8556,-44.921875
8557,-48.828125
8558,-52.734375
8559,-48.828125
8560,-50.781250
8561,-46.875000
8562,-52.734375
8563,-52.734375
8564,-48.828125
8565,-52.734375
8566,-48.828125
8567,-52.734375
8568,-52.734375
8569,-54.687500
8570,-52.734375
8571,-52.734375
8572,-56.640625
8573,-48.828125
8574,-52.734375
8575,-54.687500
8576,-56.640625
8577,-54.687500
8578,-56.640625
8579,-48.828125
8580,-54.687500
8581,-54.687500
8582,-56.640625
8583,-56.640625
8584,-56.640625
8585,-56.640625
8586,-56.640625
8587,-54.687500
8588,-56.640625
8589,-56.640625
8590,-56.640625
8591,-56.640625
8592,-56.640625
8593,-56.640625
8594,-56.640625
8595,-56.640625
8596,-56.640625
8597,-56.640625
8598,-52.734375
8599,-56.640625
8600,-56.640625
8601,-56.640625
8602,-60.546875
8603,-54.687500
8604,-58.593750
8605,-56.640625
8606,-56.640625
8607,-58.593750
8608,-56.640625
8609,-60.546875
8610,-56.640625
8611,-56.640625
8612,-56.640625
8613,-56.640625
8614,-56.640625
8615,-56.640625
8616,-54.687500
8617,-56.640625
8618,-56.640625
8619,-56.640625
8620,-56.640625
8621,-60.546875
8622,-56.640625
8623,-56.640625
8624,-56.640625
8625,-56.640625
8626,-56.640625
8627,-56.640625
8628,-56.640625
8629,-54.687500
8630,-60.546875
8631,-60.546875
8632,-56.640625
8633,-56.640625
8634,-58.593750
8635,-56.640625
8636,-54.687500
8637,-56.640625
8638,-60.546875
8639,-56.640625
8640,-54.687500
8641,-54.687500
8642,-56.640625
8643,-54.687500
8644,-56.640625
8645,-54.687500
8646,-56.640625
8647,-58.593750
8648,-52.734375
8649,-56.640625
8650,-54.687500
8651,-54.687500
8652,-54.687500
8653,-52.734375
8654,-56.640625
8655,-52.734375
8656,-50.781250
8657,-54.687500
8658,-48.828125
8659,-50.781250
8660,-48.828125
8661,-50.781250
8662,-52.734375
8663,-48.828125
8664,-48.828125
8665,-50.781250
8666,-48.828125
8667,-52.734375
8668,-50.781250
8669,-48.828125
8670,-50.781250
8671,-48.828125
8672,-50.781250
8673,-52.734375
8674,-48.828125
8675,-50.781250
8676,-50.781250
8677,-48.828125
8678,-52.734375
8679,-46.875000
8680,-48.828125
8681,-50.781250
8682,-48.828125
8683,-50.781250
8684,-44.921875
8685,-50.781250
8686,-48.828125
8687,-48.828125
8688,-48.828125
8689,-52.734375
8690,-48.828125
8691,-48.828125
8692,-48.828125
8693,-48.828125
8694,-50.781250
8695,-48.828125
8696,-48.828125
8697,-50.781250
8698,-48.828125
8699,-48.828125
8700,-48.828125
8701,-48.828125
8702,-50.781250
8703,-48.828125
8704,-50.781250
8705,-56.640625
8706,-48.828125
8707,-48.828125
8708,-48.828125
8709,-48.828125
8710,-44.921875
8711,-48.828125
8712,-48.828125
8713,-48.828125
8714,-50.781250
8715,-48.828125
8716,-48.828125
8717,-48.828125
8718,-46.875000
8719,-48.828125
8720,-46.875000
8721,-46.875000
8722,-46.875000
8723,-48.828125
8724,-48.828125
8725,-46.875000
8726,-50.781250
8727,-42.968750
8728,-50.781250
8729,-48.828125
8730,-46.875000
8731,-46.875000
8732,-46.875000
8733,-48.828125
8734,-46.875000
8735,-44.921875
8736,-44.921875
8737,-46.875000
8738,-46.875000
8739,-48.828125
8740,-44.921875
8741,-48.828125
8742,-44.921875
8743,-46.875000
8744,-44.921875
8745,-44.921875
8746,-48.828125
8747,-46.875000
8748,-48.828125
8749,-44.921875
8750,-44.921875
8751,-44.921875
8752,-44.921875
8753,-44.921875
8754,-44.921875
8755,-44.921875
8756,-44.921875
8757,-42.968750
8758,-46.875000
8759,-41.015625
8760,-44.921875
8761,-44.921875
8762,-44.921875
8763,-54.687500
8764,-44.921875
8765,-46.875000
8766,-46.875000
8767,-44.921875
8768,-46.875000
8769,-46.875000
8770,-44.921875
8771,-44.921875
8772,-39.062500
8773,-48.828125
8774,-44.921875
8775,-44.921875
8776,-44.921875
8777,-44.921875
8778,-48.828125
8779,-46.875000
8780,-44.921875
8781,-46.875000
8782,-50.781250
8783,-46.875000
8784,-44.921875
8785,-44.921875
8786,-44.921875
8787,-41.015625
8788,-44.921875
8789,-41.015625
8790,-44.921875
8791,-44.921875
8792,-42.968750
8793,-46.875000
8794,-41.015625
8795,-44.921875
8796,-44.921875
8797,-41.015625
8798,-42.968750
8799,-41.015625
8800,-44.921875
8801,-42.968750
8802,-44.921875
8803,-44.921875
8804,-41.015625
8805,-44.921875
8806,-41.015625
8807,-41.015625
8808,-42.968750
8809,-44.921875
8810,-44.921875
8811,-44.921875
8812,-33.203125
8813,-44.921875
8814,-44.921875
8815,-44.921875
8816,-44.921875
8817,-41.015625
8818,-44.921875
8819,-41.015625
8820,-44.921875
8821,-41.015625
8822,-41.015625
8823,-44.921875
8824,-41.015625
8825,-44.921875
8826,-44.921875
8827,-41.015625
8828,-44.921875
8829,-41.015625
8830,-41.015625
8831,-44.921875
8832,-44.921875
8833,-42.968750
8834,-44.921875
8835,-44.921875
8836,-44.921875
8837,-41.015625
8838,-44.921875
8839,-42.968750
8840,-42.968750
8841,-42.968750
8842,-41.015625
8843,-44.921875
8844,-41.015625
8845,-41.015625
8846,-44.921875
8847,-41.015625
8848,-44.921875
8849,-41.015625
8850,-41.015625
8851,-41.015625
8852,-41.015625
8853,-44.921875
8854,-44.921875
8855,-44.921875
8856,-41.015625
8857,-41.015625
8858,-44.921875
8859,-41.015625
8860,-44.921875
8861,-37.109375
8862,-44.921875
8863,-44.921875
8864,-41.015625
8865,-44.921875
8866,-44.921875
8867,-44.921875
8868,-41.015625
8869,-41.015625
8870,-41.015625
8871,-41.015625
8872,-44.921875
8873,-39.062500
8874,-41.015625
8875,-44.921875
8876,-41.015625
8877,-41.015625
8878,-42.968750
8879,-41.015625
8880,-41.015625
8881,-44.921875
8882,-41.015625
8883,-44.921875
8884,-41.015625
8885,-44.921875
8886,-44.921875
8887,-41.015625
8888,-44.921875
8889,-41.015625
8890,-44.921875
8891,-44.921875
8892,-41.015625
8893,-46.875000
8894,-41.015625
8895,-44.921875
8896,-44.921875
8897,-41.015625
8898,-44.921875
8899,-44.921875
8900,-44.921875
8901,-41.015625
8902,-44.921875
8903,-44.921875
8904,-41.015625
8905,-44.921875
8906,-44.921875
8907,-44.921875
8908,-44.921875
8909,-42.968750
8910,-39.062500
8911,-44.921875
8912,-44.921875
8913,-44.921875
8914,-46.875000
8915,-44.921875
8916,-44.921875
8917,-44.921875
8918,-41.015625
8919,-46.875000
8920,-44.921875
8921,-44.921875
8922,-44.921875
8923,-41.015625
8924,-46.875000
8925,-41.015625
8926,-44.921875
8927,-44.921875
8928,-44.921875
8929,-44.921875
8930,-44.921875
8931,-44.921875
8932,-46.875000
8933,-41.015625
8934,-46.875000
8935,-44.921875
8936,-44.921875
8937,-50.781250
8938,-44.921875
8939,-44.921875
8940,-44.921875
8941,-41.015625
8942,-44.921875
8943,-41.015625
8944,-44.921875
8945,-44.921875
8946,-44.921875
8947,-44.921875
8948,-44.921875
8949,-48.828125
8950,-46.875000
8951,-41.015625
8952,-44.921875
8953,-44.921875
8954,-44.921875
8955,-44.921875
8956,-44.921875
8957,-44.921875
8958,-44.921875
8959,-48.828125
8960,-44.921875
8961,-42.968750
8962,-46.875000
8963,-44.921875
8964,-41.015625
8965,-44.921875
8966,-44.921875
8967,-46.875000
8968,-48.828125
8969,-44.921875
8970,-44.921875
8971,-44.921875
8972,-44.921875
8973,-46.875000
8974,-44.921875
8975,-44.921875
8976,-44.921875
8977,-56.640625
8978,-44.921875
8979,-46.875000
8980,-44.921875
8981,-44.921875
8982,-44.921875
8983,-44.921875
8984,-42.968750
8985,-44.921875
8986,-44.921875
8987,-44.921875
8988,-46.875000
8989,-44.921875
8990,-46.875000
8991,-42.968750
8992,-46.875000
8993,-44.921875
8994,-44.921875
8995,-48.828125
8996,-44.921875
8997,-46.875000
8998,-44.921875
8999,-44.921875
9000,-46.875000
9001,-46.875000
9002,-46.875000
9003,-44.921875
9004,-44.921875
9005,-44.921875
9006,-46.875000
9007,-44.921875
9008,-60.546875
9009,-48.828125
9010,-44.921875
9011,-48.828125
9012,-48.828125
9013,-48.828125
9014,-46.875000
9015,-48.828125
9016,-48.828125
9017,-48.828125
9018,-46.875000
9019,-48.828125
9020,-46.875000
9021,-48.828125
9022,-50.781250
9023,-46.875000
9024,-50.781250
9025,-48.828125
9026,-48.828125
9027,-50.781250
9028,-48.828125
9029,-48.828125
9030,-48.828125
9031,-48.828125
9032,-48.828125
9033,-46.875000
9034,-48.828125
9035,-48.828125
9036,-46.875000
9037,-54.687500
9038,-48.828125
9039,-50.781250
9040,-48.828125
9041,-48.828125
9042,-48.828125
9043,-48.828125
9044,-48.828125
9045,-48.828125
9046,-46.875000
9047,-48.828125
9048,-48.828125
9049,-48.828125
9050,-48.828125
9051,-48.828125
9052,-48.828125
9053,-48.828125
9054,-50.781250
9055,-48.828125
9056,-48.828125
9057,-48.828125
9058,-48.828125
9059,-52.734375
9060,-48.828125
9061,-50.781250
9062,-54.687500
9063,-50.781250
9064,-56.640625
9065,-48.828125
9066,-60.546875
9067,-54.687500
9068,-50.781250
9069,-54.687500
9070,-48.828125
9071,-52.734375
9072,-52.734375
9073,-50.781250
9074,-54.687500
9075,-54.687500
9076,-50.781250
9077,-50.781250
9078,-48.828125
9079,-50.781250
9080,-48.828125
9081,-50.781250
9082,-52.734375
9083,-48.828125
9084,-48.828125
9085,-54.687500
9086,-48.828125
9087,-50.781250
9088,-48.828125
9089,-48.828125
9090,-50.781250
9091,-46.875000
9092,-50.781250
9093,-48.828125
9094,-48.828125
9095,-52.734375
9096,-48.828125
9097,-50.781250
9098,-48.828125
9099,-48.828125
9100,-52.734375
9101,-50.781250
9102,-52.734375
9103,-48.828125
9104,-52.734375
9105,-50.781250
9106,-33.203125
9107,-48.828125
9108,-48.828125
9109,-48.828125
9110,-48.828125
9111,-44.921875
9112,-46.875000
9113,-41.015625
9114,-39.062500
9115,-41.015625
9116,-35.156250
9117,-37.109375
9118,-33.203125
9119,-33.203125
9120,-31.250000
9121,-29.296875
9122,-27.343750
9123,-25.390625
9124,-23.437500
9125,-25.390625
9126,-21.484375
9127,-13.671875
9128,-17.578125
9129,-15.625000
9130,-17.578125
9131,-13.671875
9132,-13.671875
9133,-19.531250
9134,-13.671875
9135,-13.671875
9136,-13.671875
9137,-9.765625
9138,-15.625000
9139,-9.765625
9140,-13.671875
9141,-9.765625
9142,-9.765625
9143,-13.671875
9144,-9.765625
9145,-9.765625
9146,1.953125
9147,-9.765625
9148,-9.765625
9149,-9.765625
9150,-9.765625
9151,-13.671875
9152,-1.953125
9153,-11.718750
9154,-13.671875
9155,-9.765625
9156,-9.765625
9157,-9.765625
9158,-13.671875
9159,-9.765625
9160,-13.671875
9161,-13.671875
9162,-13.671875
9163,-11.718750
9164,-11.718750
9165,-15.625000
9166,-11.718750
9167,-15.625000
9168,-9.765625
9169,-13.671875
9170,-13.671875
9171,-13.671875
9172,-17.578125
9173,-13.671875
9174,-13.671875
9175,-11.718750
9176,-9.765625
9177,-17.578125
9178,-11.718750
9179,-17.578125
9180,-13.671875
9181,-13.671875
9182,-15.625000
9183,-13.671875
9184,-17.578125
9185,-13.671875
9186,-15.625000
9187,-9.765625
9188,-15.625000
9189,-13.671875
9190,-13.671875
9191,-13.671875
9192,-13.671875
9193,-13.671875
9194,-13.671875
9195,-17.578125
9196,-13.671875
9197,-13.671875
9198,-15.625000
9199,-11.718750
9200,-13.671875
9201,-15.625000
9202,-13.671875
9203,-13.671875
9204,-9.765625
9205,-13.671875
9206,-15.625000
9207,-13.671875
9208,-13.671875
9209,-13.671875
9210,-15.625000
9211,-13.671875
9212,-13.671875
9213,-13.671875
9214,-11.718750
9215,-13.671875
9216,-13.671875
9217,-9.765625
9218,-13.671875
9219,-7.812500
9220,-11.718750
9221,-9.765625
9222,-7.812500
9223,-9.765625
9224,-7.812500
9225,-7.812500
9226,-7.812500
9227,-5.859375
9228,-5.859375
9229,-5.859375
9230,-7.812500
9231,-3.906250
9232,-3.906250
9233,-1.953125
9234,-1.953125
9235,-1.953125
9236,-3.906250
9237,-1.953125
9238,-1.953125
9239,-1.953125
9240,5.859375
9241,0.000000
9242,1.953125
9243,0.000000
9244,-1.953125
9245,1.953125
9246,-1.953125
9247,1.953125
9248,1.953125
9249,0.000000
9250,1.953125
9251,1.953125
9252,0.000000
9253,0.000000
9254,1.953125
9255,1.953125
9256,1.953125
9257,1.953125
9258,1.953125
9259,0.000000
9260,1.953125
9261,0.000000
9262,1.953125
9263,1.953125
9264,1.953125
9265,1.953125
9266,-9.765625
9267,1.953125
9268,5.859375
9269,0.000000
9270,1.953125
9271,1.953125
9272,1.953125
9273,1.953125
9274,1.953125
9275,5.859375
9276,1.953125
9277,0.000000
9278,1.953125
9279,1.953125
9280,1.953125
9281,1.953125
9282,1.953125
9283,1.953125
9284,1.953125
9285,1.953125
9286,0.000000
9287,1.953125
9288,1.953125
9289,1.953125
9290,1.953125
9291,1.953125
9292,1.953125
9293,1.953125
9294,0.000000
9295,1.953125
9296,1.953125
9297,1.953125
9298,1.953125
9299,1.953125
9300,1.953125
9301,1.953125
9302,0.000000
9303,1.953125
9304,1.953125
9305,1.953125
9306,1.953125
9307,1.953125
9308,1.953125
9309,1.953125
9310,0.000000
9311,1.953125
9312,-1.953125
9313,0.000000
9314,0.000000
9315,1.953125
9316,1.953125
9317,0.000000
9318,0.000000
9319,0.000000
9320,0.000000
9321,-7.812500
9322,1.953125
9323,0.000000
9324,1.953125
9325,1.953125
9326,0.000000
9327,1.953125
9328,1.953125
9329,0.000000
9330,1.953125
9331,-1.953125
9332,1.953125
9333,1.953125
9334,1.953125
9335,1.953125
9336,0.000000
9337,1.953125
9338,1.953125
9339,1.953125
9340,1.953125
9341,5.859375
9342,0.000000
9343,0.000000
9344,0.000000
9345,1.953125
9346,-1.953125
9347,-1.953125
9348,0.000000
9349,-1.953125
9350,0.000000
9351,-1.953125
9352,-1.953125
9353,-1.953125
9354,-1.953125
9355,-1.953125
9356,-3.906250
9357,-5.859375
9358,-5.859375
9359,-5.859375
9360,-9.765625
9361,-9.765625
9362,-7.812500
9363,-13.671875
9364,-13.671875
9365,-13.671875
9366,-15.625000
9367,-13.671875
9368,-19.531250
9369,-17.578125
9370,-19.531250
9371,-21.484375
9372,-21.484375
9373,-23.437500
9374,-23.437500
9375,-27.343750
9376,-29.296875
9377,-29.296875
9378,-31.250000
9379,-29.296875
9380,-31.250000
9381,-29.296875
9382,-31.250000
9383,-33.203125
9384,-33.203125
9385,-33.203125
9386,-37.109375
9387,-33.203125
9388,-33.203125
9389,-37.109375
9390,-33.203125
9391,-41.015625
9392,-35.156250
9393,-37.109375
9394,-39.062500
9395,-39.062500
9396,-41.015625
9397,-37.109375
9398,-41.015625
9399,-41.015625
9400,-39.062500
9401,-41.015625
9402,-37.109375
9403,-41.015625
9404,-41.015625
9405,-41.015625
9406,-41.015625
9407,-37.109375
9408,-42.968750
9409,-41.015625
9410,-41.015625
9411,-41.015625
9412,-44.921875
9413,-44.921875
9414,-41.015625
9415,-41.015625
9416,-41.015625
9417,-44.921875
9418,-41.015625
9419,-44.921875
9420,-44.921875
9421,-41.015625
9422,-46.875000
9423,-41.015625
9424,-44.921875
9425,-44.921875
9426,-41.015625
9427,-46.875000
9428,-42.968750
9429,-44.921875
9430,-44.921875
9431,-44.921875
9432,-44.921875
9433,-44.921875
9434,-46.875000
9435,-44.921875
9436,-46.875000
9437,-44.921875
9438,-46.875000
9439,-46.875000
9440,-46.875000
9441,-46.875000
9442,-44.921875
9443,-46.875000
9444,-44.921875
9445,-44.921875
9446,-46.875000
9447,-46.875000
9448,-48.828125
9449,-48.828125
9450,-50.781250
9451,-48.828125
9452,-48.828125
9453,-48.828125
9454,-48.828125
9455,-48.828125
9456,-48.828125
9457,-48.828125
9458,-52.734375
9459,-50.781250
9460,-52.734375
9461,-50.781250
9462,-48.828125
9463,-54.687500
9464,-52.734375
9465,-50.781250
9466,-50.781250
9467,-54.687500
9468,-52.734375
9469,-50.781250
9470,-52.734375
9471,-50.781250
9472,-52.734375
9473,-56.640625
9474,-48.828125
9475,-56.640625
9476,-52.734375
9477,-56.640625
9478,-54.687500
9479,-54.687500
9480,-66.406250
9481,-56.640625
9482,-56.640625
9483,-56.640625
9484,-56.640625
9485,-54.687500
9486,-52.734375
9487,-56.640625
9488,-56.640625
9489,-54.687500
9490,-56.640625
9491,-56.640625
9492,-56.640625
9493,-56.640625
9494,-56.640625
9495,-60.546875
9496,-56.640625
9497,-56.640625
9498,-54.687500
9499,-56.640625
9500,-56.640625
9501,-56.640625
9502,-56.640625
9503,-56.640625
9504,-56.640625
9505,-60.546875
9506,-56.640625
9507,-58.593750
9508,-58.593750
9509,-54.687500
9510,-60.546875
9511,-64.453125
9512,-56.640625
9513,-60.546875
9514,-56.640625
9515,-60.546875
9516,-56.640625
9517,-58.593750
9518,-56.640625
9519,-56.640625
9520,-56.640625
9521,-56.640625
9522,-56.640625
9523,-60.546875
9524,-58.593750
9525,-58.593750
9526,-56.640625
9527,-58.593750
9528,-60.546875
9529,-56.640625
9530,-56.640625
9531,-56.640625
9532,-58.593750
9533,-60.546875
9534,-56.640625
9535,-60.546875
9536,-60.546875
9537,-60.546875
9538,-54.687500
9539,-56.640625
9540,-60.546875
9541,-56.640625
9542,-60.546875
9543,-56.640625
9544,-56.640625
9545,-60.546875
9546,-54.687500
9547,-56.640625
9548,-60.546875
9549,-54.687500
9550,-60.546875
9551,-54.687500
9552,-58.593750
9553,-56.640625
9554,-58.593750
9555,-60.546875
9556,-54.687500
9557,-56.640625
9558,-60.546875
9559,-56.640625
9560,-48.828125
9561,-56.640625
9562,-58.593750
9563,-60.546875
9564,-56.640625
9565,-58.593750
9566,-56.640625
9567,-60.546875
9568,-60.546875
9569,-56.640625
9570,-62.500000
9571,-56.640625
9572,-60.546875
9573,-60.546875
9574,-56.640625
9575,-60.546875
9576,-58.593750
9577,-60.546875
9578,-58.593750
9579,-60.546875
9580,-58.593750
9581,-58.593750
9582,-60.546875
9583,-56.640625
9584,-56.640625
9585,-56.640625
9586,-54.687500
9587,-58.593750
9588,-56.640625
9589,-58.593750
9590,-56.640625
9591,-66.406250
9592,-56.640625
9593,-58.593750
9594,-58.593750
9595,-56.640625
9596,-56.640625
9597,-56.640625
9598,-56.640625
9599,-56.640625
9600,-62.500000
9601,-56.640625
9602,-56.640625
9603,-56.640625
9604,-56.640625
9605,-56.640625
9606,-56.640625
9607,-56.640625
9608,-56.640625
9609,-56.640625
9610,-56.640625
9611,-54.687500
9612,-60.546875
9613,-56.640625
9614,-56.640625
9615,-56.640625
9616,-54.687500
9617,-56.640625
9618,-56.640625
9619,-54.687500
9620,-56.640625
9621,-56.640625
9622,-54.687500
9623,-54.687500
9624,-56.640625
9625,-56.640625
9626,-52.734375
9627,-54.687500
9628,-54.687500
9629,-54.687500
9630,-56.640625
9631,-50.781250
9632,-54.687500
9633,-52.734375
9634,-48.828125
9635,-52.734375
9636,-48.828125
9637,-50.781250
9638,-50.781250
9639,-48.828125
9640,-56.640625
9641,-48.828125
9642,-52.734375
9643,-48.828125
9644,-48.828125
9645,-50.781250
9646,-46.875000
9647,-50.781250
9648,-46.875000
9649,-42.968750
9650,-48.828125
9651,-48.828125
9652,-48.828125
9653,-48.828125
9654,-46.875000
9655,-48.828125
9656,-48.828125
9657,-48.828125
9658,-50.781250
9659,-48.828125
9660,-46.875000
9661,-48.828125
9662,-46.875000
9663,-46.875000
9664,-50.781250
9665,-46.875000
9666,-50.781250
9667,-48.828125
9668,-48.828125
9669,-52.734375
9670,-52.734375
9671,-50.781250
9672,-50.781250
9673,-50.781250
9674,-52.734375
9675,-48.828125
9676,-50.781250
9677,-48.828125
9678,-44.921875
9679,-48.828125
9680,-44.921875
9681,-48.828125
9682,-48.828125
9683,-46.875000
9684,-52.734375
9685,-42.968750
9686,-48.828125
9687,-48.828125
9688,-48.828125
9689,-48.828125
9690,-50.781250
9691,-46.875000
9692,-46.875000
9693,-44.921875
9694,-44.921875
9695,-46.875000
9696,-46.875000
9697,-50.781250
9698,-52.734375
9699,-46.875000
9700,-46.875000
9701,-48.828125
9702,-46.875000
9703,-46.875000
9704,-46.875000
9705,-44.921875
9706,-46.875000
9707,-48.828125
9708,-44.921875
9709,-48.828125
9710,-50.781250
9711,-48.828125
9712,-50.781250
9713,-48.828125
9714,-60.546875
9715,-48.828125
9716,-52.734375
9717,-48.828125
9718,-48.828125
9719,-48.828125
9720,-46.875000
9721,-48.828125
9722,-46.875000
9723,-48.828125
9724,-48.828125
9725,-48.828125
9726,-48.828125
9727,-48.828125
9728,-48.828125
9729,-48.828125
9730,-46.875000
9731,-48.828125
9732,-44.921875
9733,-44.921875
9734,-48.828125
9735,-50.781250
9736,-44.921875
9737,-48.828125
9738,-46.875000
9739,-48.828125
9740,-48.828125
9741,-48.828125
9742,-52.734375
9743,-46.875000
9744,-48.828125
9745,-44.921875
9746,-44.921875
9747,-54.687500
9748,-44.921875
9749,-48.828125
9750,-48.828125
9751,-48.828125
9752,-48.828125
9753,-48.828125
9754,-46.875000
9755,-48.828125
9756,-48.828125
9757,-48.828125
9758,-48.828125
9759,-46.875000
9760,-48.828125
9761,-48.828125
9762,-50.781250
9763,-46.875000
9764,-48.828125
9765,-48.828125
9766,-54.687500
9767,-50.781250
9768,-46.875000
9769,-50.781250
9770,-46.875000
9771,-48.828125
9772,-50.781250
9773,-46.875000
9774,-50.781250
9775,-48.828125
9776,-48.828125
9777,-48.828125
9778,-48.828125
9779,-52.734375
9780,-48.828125
9781,-48.828125
9782,-48.828125
9783,-46.875000
9784,-50.781250
9785,-48.828125
9786,-52.734375
9787,-48.828125
9788,-48.828125
9789,-52.734375
9790,-50.781250
9791,-52.734375
9792,-48.828125
9793,-48.828125
9794,-50.781250
9795,-48.828125
9796,-48.828125
9797,-52.734375
9798,-48.828125
9799,-48.828125
9800,-48.828125
9801,-50.781250
9802,-52.734375
9803,-48.828125
9804,-50.781250
9805,-56.640625
9806,-48.828125
9807,-50.781250
9808,-48.828125
9809,-52.734375
9810,-50.781250
9811,-54.687500
9812,-52.734375
9813,-52.734375
9814,-52.734375
9815,-46.875000
9816,-48.828125
9817,-52.734375
9818,-52.734375
9819,-54.687500
9820,-48.828125
9821,-54.687500
9822,-50.781250
9823,-52.734375
9824,-52.734375
9825,-48.828125
9826,-54.687500
9827,-52.734375
9828,-52.734375
9829,-52.734375
9830,-52.734375
9831,-54.687500
9832,-54.687500
9833,-50.781250
9834,-54.687500
9835,-52.734375
9836,-52.734375
9837,-52.734375
9838,-54.687500
9839,-54.687500
9840,-52.734375
9841,-52.734375
9842,-54.687500
9843,-50.781250
9844,-52.734375
9845,-50.781250
9846,-56.640625
9847,-52.734375
9848,-50.781250
9849,-56.640625
9850,-52.734375
9851,-54.687500
9852,-52.734375
9853,-56.640625
9854,-54.687500
9855,-48.828125
9856,-54.687500
9857,-50.781250
9858,-54.687500
9859,-54.687500
9860,-54.687500
9861,-54.687500
9862,-48.828125
9863,-60.546875
9864,-56.640625
9865,-52.734375
9866,-54.687500
9867,-54.687500
9868,-52.734375
9869,-52.734375
9870,-50.781250
9871,-54.687500
9872,-54.687500
9873,-54.687500
9874,-54.687500
9875,-54.687500
9876,-46.875000
9877,-56.640625
9878,-52.734375
9879,-54.687500
9880,-56.640625
9881,-56.640625
9882,-54.687500
9883,-56.640625
9884,-54.687500
9885,-52.734375
9886,-54.687500
9887,-52.734375
9888,-56.640625
9889,-54.687500
9890,-54.687500
9891,-54.687500
9892,-50.781250
9893,-56.640625
9894,-54.687500
9895,-56.640625
9896,-52.734375
9897,-52.734375
9898,-56.640625
9899,-48.828125
9900,-54.687500
9901,-54.687500
9902,-52.734375
9903,-54.687500
9904,-56.640625
9905,-56.640625
9906,-50.781250
9907,-56.640625
9908,-56.640625
9909,-52.734375
9910,-56.640625
9911,-52.734375
9912,-56.640625
9913,-52.734375
9914,-56.640625
9915,-54.687500
9916,-54.687500
9917,-56.640625
9918,-50.781250
9919,-56.640625
9920,-50.781250
9921,-54.687500
9922,-60.546875
9923,-56.640625
9924,-56.640625
9925,-54.687500
9926,-54.687500
9927,-54.687500
9928,-56.640625
9929,-56.640625
9930,-56.640625
9931,-54.687500
9932,-56.640625
9933,-54.687500
9934,-56.640625
9935,-56.640625
9936,-56.640625
9937,-56.640625
9938,-56.640625
9939,-58.593750
9940,-56.640625
9941,-54.687500
9942,-56.640625
9943,-54.687500
9944,-52.734375
9945,-56.640625
9946,-54.687500
9947,-56.640625
9948,-54.687500
9949,-56.640625
9950,-54.687500
9951,-54.687500
9952,-54.687500
9953,-50.781250
9954,-56.640625
9955,-54.687500
9956,-54.687500
9957,-56.640625
9958,-52.734375
9959,-56.640625
9960,-54.687500
9961,-50.781250
9962,-54.687500
9963,-52.734375
9964,-54.687500
9965,-54.687500
9966,-54.687500
9967,-52.734375
9968,-54.687500
9969,-56.640625
9970,-54.687500
9971,-56.640625
9972,-56.640625
9973,-52.734375
9974,-54.687500
9975,-54.687500
9976,-54.687500
9977,-54.687500
9978,-50.781250
9979,-52.734375
9980,-56.640625
9981,-54.687500
9982,-56.640625
9983,-52.734375
9984,-56.640625
9985,-50.781250
9986,-56.640625
9987,-52.734375
9988,-54.687500
9989,-56.640625
9990,-54.687500
9991,-54.687500
9992,-52.734375
9993,-52.734375
9994,-54.687500
9995,-50.781250
9996,-52.734375
9997,-48.828125
9998,-50.781250
9999,-48.828125
10000,-48.828125
