Channel              :,CH1
Frequency            :,  ?
Period               :,  ?
PK-PK                :,113.3mV
Probe attenuation    :,10X
Voltage per ADC value:,0.122070mV
Time interval        :,400.00000us

index,CH1_Voltage(mV)
1,-85.937500
2,-85.937500
3,-80.078125
4,-83.984375
5,-87.890625
6,-83.984375
7,-87.890625
8,-87.890625
9,-85.937500
10,-87.890625
11,-83.984375
12,-91.796875
13,-85.937500
14,-85.937500
15,-87.890625
16,-72.265625
17,-87.890625
18,-87.890625
19,-83.984375
20,-85.937500
21,-85.937500
22,-87.890625
23,-85.937500
24,-87.890625
25,-85.937500
26,-85.937500
27,-85.937500
28,-85.937500
29,-85.937500
30,-87.890625
31,-85.937500
32,-87.890625
33,-87.890625
34,-87.890625
35,-85.937500
36,-83.984375
37,-85.937500
38,-87.890625
39,-83.984375
40,-87.890625
41,-85.937500
42,-85.937500
43,-85.937500
44,-85.937500
45,-85.937500
46,-83.984375
47,-85.937500
48,-83.984375
49,-85.937500
50,-85.937500
51,-83.984375
52,-87.890625
53,-83.984375
54,-87.890625
55,-83.984375
56,-83.984375
57,-85.937500
58,-83.984375
59,-87.890625
60,-85.937500
61,-85.937500
62,-83.984375
63,-87.890625
64,-83.984375
65,-82.031250
66,-87.890625
67,-83.984375
68,-87.890625
69,-87.890625
70,-85.937500
71,-85.937500
72,-83.984375
73,-85.937500
74,-85.937500
75,-83.984375
76,-87.890625
77,-85.937500
78,-87.890625
79,-85.937500
80,-83.984375
81,-87.890625
82,-83.984375
83,-85.937500
84,-85.937500
85,-82.031250
86,-87.890625
87,-85.937500
88,-83.984375
89,-85.937500
90,-85.937500
91,-82.031250
92,-85.937500
93,-82.031250
94,-83.984375
95,-83.984375
96,-85.937500
97,-83.984375
98,-83.984375
99,-82.031250
100,-83.984375
101,-85.937500
102,-85.937500
103,-83.984375
104,-82.031250
105,-83.984375
106,-83.984375
107,-85.937500
108,-83.984375
109,-85.937500
110,-82.031250
111,-83.984375
112,-95.703125
113,-82.031250
114,-85.937500
115,-82.031250
116,-85.937500
117,-85.937500
118,-82.031250
119,-85.937500
120,-82.031250
121,-85.937500
122,-83.984375
123,-83.984375
124,-82.031250
125,-82.031250
126,-87.890625
127,-82.031250
128,-80.078125
129,-83.984375
130,-82.031250
131,-83.984375
132,-83.984375
133,-85.937500
134,-82.031250
135,-82.031250
136,-83.984375
137,-83.984375
138,-82.031250
139,-82.031250
140,-82.031250
141,-83.984375
142,-82.031250
143,-82.031250
144,-83.984375
145,-83.984375
146,-83.984375
147,-80.078125
148,-83.984375
149,-85.937500
150,-82.031250
151,-83.984375
152,-93.750000
153,-82.031250
154,-83.984375
155,-80.078125
156,-83.984375
157,-85.937500
158,-83.984375
159,-83.984375
160,-82.031250
161,-85.937500
162,-82.031250
163,-85.937500
164,-83.984375
165,-82.031250
166,-85.937500
167,-83.984375
168,-85.937500
169,-85.937500
170,-82.031250
171,-83.984375
172,-82.031250
173,-83.984375
174,-83.984375
175,-87.890625
176,-85.937500
177,-83.984375
178,-83.984375
179,-85.937500
180,-82.031250
181,-85.937500
182,-85.937500
183,-83.984375
184,-85.937500
185,-82.031250
186,-87.890625
187,-83.984375
188,-85.937500
189,-85.937500
190,-85.937500
191,-83.984375
192,-82.031250
193,-85.937500
194,-83.984375
195,-82.031250
196,-85.937500
197,-85.937500
198,-85.937500
199,-83.984375
200,-85.937500
201,-83.984375
202,-83.984375
203,-85.937500
204,-83.984375
205,-87.890625
206,-83.984375
207,-82.031250
208,-87.890625
209,-83.984375
210,-87.890625
211,-85.937500
212,-85.937500
213,-83.984375
214,-83.984375
215,-85.937500
216,-85.937500
217,-85.937500
218,-85.937500
219,-85.937500
220,-85.937500
221,-87.890625
222,-83.984375
223,-82.031250
224,-82.031250
225,-85.937500
226,-82.031250
227,-83.984375
228,-87.890625
229,-82.031250
230,-83.984375
231,-83.984375
232,-82.031250
233,-85.937500
234,-66.406250
235,-85.937500
236,-83.984375
237,-83.984375
238,-83.984375
239,-85.937500
240,-85.937500
241,-85.937500
242,-83.984375
243,-80.078125
244,-83.984375
245,-85.937500
246,-82.031250
247,-76.171875
248,-82.031250
249,-82.031250
250,-85.937500
251,-80.078125
252,-82.031250
253,-85.937500
254,-82.031250
255,-83.984375
256,-83.984375
257,-83.984375
258,-87.890625
259,-82.031250
260,-87.890625
261,-83.984375
262,-85.937500
263,-85.937500
264,-85.937500
265,-85.937500
266,-82.031250
267,-85.937500
268,-85.937500
269,-82.031250
270,-87.890625
271,-83.984375
272,-85.937500
273,-85.937500
274,-83.984375
275,-85.937500
276,-83.984375
277,-87.890625
278,-85.937500
279,-83.984375
280,-87.890625
281,-85.937500
282,-87.890625
283,-83.984375
284,-82.031250
285,-85.937500
286,-83.984375
287,-83.984375
288,-85.937500
289,-85.937500
290,-82.031250
291,-83.984375
292,-85.937500
293,-85.937500
294,-83.984375
295,-87.890625
296,-83.984375
297,-85.937500
298,-85.937500
299,-85.937500
300,-85.937500
301,-83.984375
302,-85.937500
303,-85.937500
304,-85.937500
305,-87.890625
306,-83.984375
307,-87.890625
308,-80.078125
309,-85.937500
310,-83.984375
311,-87.890625
312,-83.984375
313,-85.937500
314,-87.890625
315,-83.984375
316,-87.890625
317,-82.031250
318,-83.984375
319,-87.890625
320,-82.031250
321,-87.890625
322,-85.937500
323,-87.890625
324,-87.890625
325,-82.031250
326,-85.937500
327,-83.984375
328,-85.937500
329,-87.890625
330,-85.937500
331,-85.937500
332,-83.984375
333,-85.937500
334,-85.937500
335,-83.984375
336,-85.937500
337,-85.937500
338,-82.031250
339,-83.984375
340,-87.890625
341,-82.031250
342,-87.890625
343,-95.703125
344,-85.937500
345,-83.984375
346,-83.984375
347,-83.984375
348,-83.984375
349,-85.937500
350,-83.984375
351,-85.937500
352,-85.937500
353,-83.984375
354,-85.937500
355,-85.937500
356,-87.890625
357,-85.937500
358,-83.984375
359,-85.937500
360,-83.984375
361,-72.265625
362,-85.937500
363,-83.984375
364,-85.937500
365,-85.937500
366,-87.890625
367,-83.984375
368,-83.984375
369,-91.796875
370,-82.031250
371,-83.984375
372,-85.937500
373,-80.078125
374,-83.984375
375,-80.078125
376,-82.031250
377,-82.031250
378,-80.078125
379,-83.984375
380,-80.078125
381,-83.984375
382,-82.031250
383,-80.078125
384,-80.078125
385,-80.078125
386,-80.078125
387,-83.984375
388,-80.078125
389,-80.078125
390,-80.078125
391,-78.125000
392,-82.031250
393,-80.078125
394,-80.078125
395,-80.078125
396,-80.078125
397,-80.078125
398,-80.078125
399,-80.078125
400,-78.125000
401,-80.078125
402,-80.078125
403,-80.078125
404,-80.078125
405,-76.171875
406,-80.078125
407,-80.078125
408,-78.125000
409,-80.078125
410,-78.125000
411,-82.031250
412,-80.078125
413,-80.078125
414,-80.078125
415,-78.125000
416,-82.031250
417,-80.078125
418,-78.125000
419,-80.078125
420,-76.171875
421,-80.078125
422,-80.078125
423,-78.125000
424,-80.078125
425,-76.171875
426,-78.125000
427,-80.078125
428,-76.171875
429,-78.125000
430,-83.984375
431,-76.171875
432,-76.171875
433,-72.265625
434,-76.171875
435,-72.265625
436,-72.265625
437,-72.265625
438,-72.265625
439,-72.265625
440,-72.265625
441,-72.265625
442,-72.265625
443,-76.171875
444,-72.265625
445,-72.265625
446,-72.265625
447,-72.265625
448,-70.312500
449,-72.265625
450,-72.265625
451,-72.265625
452,-72.265625
453,-72.265625
454,-72.265625
455,-70.312500
456,-72.265625
457,-72.265625
458,-72.265625
459,-72.265625
460,-70.312500
461,-72.265625
462,-72.265625
463,-70.312500
464,-72.265625
465,-72.265625
466,-72.265625
467,-72.265625
468,-72.265625
469,-76.171875
470,-72.265625
471,-72.265625
472,-72.265625
473,-70.312500
474,-76.171875
475,-70.312500
476,-72.265625
477,-70.312500
478,-72.265625
479,-72.265625
480,-72.265625
481,-72.265625
482,-72.265625
483,-70.312500
484,-72.265625
485,-72.265625
486,-72.265625
487,-70.312500
488,-72.265625
489,-72.265625
490,-72.265625
491,-76.171875
492,-74.218750
493,-70.312500
494,-72.265625
495,-70.312500
496,-72.265625
497,-72.265625
498,-72.265625
499,-72.265625
500,-74.218750
501,-72.265625
502,-72.265625
503,-72.265625
504,-72.265625
505,-72.265625
506,-72.265625
507,-72.265625
508,-72.265625
509,-72.265625
510,-70.312500
511,-72.265625
512,-70.312500
513,-72.265625
514,-72.265625
515,-72.265625
516,-76.171875
517,-72.265625
518,-72.265625
519,-72.265625
520,-72.265625
521,-72.265625
522,-72.265625
523,-72.265625
524,-72.265625
525,-72.265625
526,-74.218750
527,-72.265625
528,-72.265625
529,-72.265625
530,-70.312500
531,-72.265625
532,-72.265625
533,-72.265625
534,-72.265625
535,-80.078125
536,-76.171875
537,-72.265625
538,-72.265625
539,-72.265625
540,-72.265625
541,-72.265625
542,-72.265625
543,-76.171875
544,-72.265625
545,-76.171875
546,-76.171875
547,-74.218750
548,-76.171875
549,-76.171875
550,-78.125000
551,-78.125000
552,-76.171875
553,-78.125000
554,-76.171875
555,-78.125000
556,-76.171875
557,-80.078125
558,-82.031250
559,-78.125000
560,-80.078125
561,-78.125000
562,-82.031250
563,-80.078125
564,-80.078125
565,-80.078125
566,-80.078125
567,-83.984375
568,-80.078125
569,-83.984375
570,-85.937500
571,-82.031250
572,-85.937500
573,-80.078125
574,-91.796875
575,-82.031250
576,-80.078125
577,-83.984375
578,-80.078125
579,-80.078125
580,-83.984375
581,-82.031250
582,-82.031250
583,-80.078125
584,-82.031250
585,-82.031250
586,-80.078125
587,-80.078125
588,-82.031250
589,-82.031250
590,-82.031250
591,-80.078125
592,-80.078125
593,-82.031250
594,-80.078125
595,-82.031250
596,-87.890625
597,-83.984375
598,-82.031250
599,-82.031250
600,-82.031250
601,-82.031250
602,-82.031250
603,-82.031250
604,-83.984375
605,-82.031250
606,-83.984375
607,-82.031250
608,-85.937500
609,-85.937500
610,-85.937500
611,-82.031250
612,-83.984375
613,-83.984375
614,-82.031250
615,-85.937500
616,-82.031250
617,-85.937500
618,-83.984375
619,-83.984375
620,-85.937500
621,-83.984375
622,-83.984375
623,-85.937500
624,-85.937500
625,-87.890625
626,-83.984375
627,-85.937500
628,-83.984375
629,-83.984375
630,-85.937500
631,-82.031250
632,-87.890625
633,-85.937500
634,-87.890625
635,-87.890625
636,-83.984375
637,-87.890625
638,-85.937500
639,-83.984375
640,-85.937500
641,-83.984375
642,-87.890625
643,-87.890625
644,-85.937500
645,-89.843750
646,-85.937500
647,-85.937500
648,-87.890625
649,-85.937500
650,-87.890625
651,-87.890625
652,-87.890625
653,-85.937500
654,-85.937500
655,-87.890625
656,-82.031250
657,-93.750000
658,-85.937500
659,-87.890625
660,-87.890625
661,-70.312500
662,-91.796875
663,-85.937500
664,-87.890625
665,-87.890625
666,-87.890625
667,-87.890625
668,-87.890625
669,-87.890625
670,-93.750000
671,-87.890625
672,-87.890625
673,-87.890625
674,-87.890625
675,-87.890625
676,-87.890625
677,-87.890625
678,-87.890625
679,-87.890625
680,-87.890625
681,-87.890625
682,-87.890625
683,-87.890625
684,-87.890625
685,-87.890625
686,-87.890625
687,-89.843750
688,-85.937500
689,-87.890625
690,-87.890625
691,-85.937500
692,-91.796875
693,-85.937500
694,-87.890625
695,-87.890625
696,-87.890625
697,-89.843750
698,-87.890625
699,-87.890625
700,-85.937500
701,-87.890625
702,-91.796875
703,-87.890625
704,-91.796875
705,-85.937500
706,-91.796875
707,-87.890625
708,-87.890625
709,-87.890625
710,-87.890625
711,-87.890625
712,-87.890625
713,-87.890625
714,-87.890625
715,-87.890625
716,-91.796875
717,-87.890625
718,-85.937500
719,-87.890625
720,-87.890625
721,-87.890625
722,-87.890625
723,-87.890625
724,-91.796875
725,-87.890625
726,-87.890625
727,-91.796875
728,-97.656250
729,-91.796875
730,-85.937500
731,-91.796875
732,-87.890625
733,-87.890625
734,-87.890625
735,-87.890625
736,-91.796875
737,-89.843750
738,-87.890625
739,-89.843750
740,-87.890625
741,-91.796875
742,-87.890625
743,-87.890625
744,-87.890625
745,-87.890625
746,-87.890625
747,-91.796875
748,-87.890625
749,-87.890625
750,-87.890625
751,-89.843750
752,-89.843750
753,-89.843750
754,-89.843750
755,-87.890625
756,-87.890625
757,-91.796875
758,-87.890625
759,-91.796875
760,-87.890625
761,-91.796875
762,-89.843750
763,-89.843750
764,-87.890625
765,-89.843750
766,-97.656250
767,-87.890625
768,-91.796875
769,-91.796875
770,-109.375000
771,-93.750000
772,-87.890625
773,-91.796875
774,-91.796875
775,-87.890625
776,-91.796875
777,-87.890625
778,-87.890625
779,-82.031250
780,-91.796875
781,-87.890625
782,-87.890625
783,-91.796875
784,-87.890625
785,-87.890625
786,-89.843750
787,-87.890625
788,-87.890625
789,-87.890625
790,-87.890625
791,-87.890625
792,-87.890625
793,-87.890625
794,-87.890625
795,-87.890625
796,-89.843750
797,-87.890625
798,-87.890625
799,-85.937500
800,-87.890625
801,-85.937500
802,-83.984375
803,-87.890625
804,-85.937500
805,-72.265625
806,-89.843750
807,-85.937500
808,-87.890625
809,-83.984375
810,-87.890625
811,-85.937500
812,-85.937500
813,-83.984375
814,-82.031250
815,-83.984375
816,-82.031250
817,-87.890625
818,-80.078125
819,-83.984375
820,-78.125000
821,-80.078125
822,-82.031250
823,-78.125000
824,-82.031250
825,-80.078125
826,-78.125000
827,-80.078125
828,-76.171875
829,-82.031250
830,-76.171875
831,-76.171875
832,-78.125000
833,-72.265625
834,-76.171875
835,-72.265625
836,-76.171875
837,-76.171875
838,-76.171875
839,-72.265625
840,-82.031250
841,-74.218750
842,-72.265625
843,-74.218750
844,-70.312500
845,-72.265625
846,-70.312500
847,-72.265625
848,-72.265625
849,-72.265625
850,-72.265625
851,-72.265625
852,-70.312500
853,-72.265625
854,-66.406250
855,-72.265625
856,-70.312500
857,-72.265625
858,-66.406250
859,-70.312500
860,-70.312500
861,-66.406250
862,-70.312500
863,-66.406250
864,-68.359375
865,-68.359375
866,-66.406250
867,-66.406250
868,-66.406250
869,-66.406250
870,-70.312500
871,-66.406250
872,-64.453125
873,-64.453125
874,-66.406250
875,-66.406250
876,-66.406250
877,-68.359375
878,-66.406250
879,-66.406250
880,-66.406250
881,-64.453125
882,-54.687500
883,-64.453125
884,-64.453125
885,-68.359375
886,-64.453125
887,-66.406250
888,-74.218750
889,-64.453125
890,-66.406250
891,-64.453125
892,-68.359375
893,-64.453125
894,-68.359375
895,-70.312500
896,-64.453125
897,-68.359375
898,-64.453125
899,-66.406250
900,-66.406250
901,-66.406250
902,-68.359375
903,-64.453125
904,-70.312500
905,-66.406250
906,-68.359375
907,-66.406250
908,-66.406250
909,-68.359375
910,-72.265625
911,-70.312500
912,-68.359375
913,-70.312500
914,-72.265625
915,-70.312500
916,-72.265625
917,-72.265625
918,-72.265625
919,-72.265625
920,-72.265625
921,-72.265625
922,-76.171875
923,-72.265625
924,-76.171875
925,-74.218750
926,-72.265625
927,-78.125000
928,-76.171875
929,-78.125000
930,-78.125000
931,-76.171875
932,-80.078125
933,-76.171875
934,-80.078125
935,-78.125000
936,-80.078125
937,-80.078125
938,-80.078125
939,-82.031250
940,-80.078125
941,-80.078125
942,-82.031250
943,-82.031250
944,-82.031250
945,-82.031250
946,-87.890625
947,-83.984375
948,-85.937500
949,-83.984375
950,-85.937500
951,-87.890625
952,-82.031250
953,-85.937500
954,-85.937500
955,-85.937500
956,-87.890625
957,-85.937500
958,-87.890625
959,-87.890625
960,-83.984375
961,-87.890625
962,-83.984375
963,-87.890625
964,-87.890625
965,-87.890625
966,-87.890625
967,-87.890625
968,-95.703125
969,-87.890625
970,-87.890625
971,-87.890625
972,-87.890625
973,-87.890625
974,-87.890625
975,-82.031250
976,-91.796875
977,-85.937500
978,-91.796875
979,-87.890625
980,-87.890625
981,-91.796875
982,-89.843750
983,-91.796875
984,-87.890625
985,-85.937500
986,-87.890625
987,-91.796875
988,-91.796875
989,-87.890625
990,-91.796875
991,-91.796875
992,-87.890625
993,-89.843750
994,-87.890625
995,-87.890625
996,-91.796875
997,-87.890625
998,-91.796875
999,-87.890625
1000,-87.890625
1001,-91.796875
1002,-87.890625
1003,-91.796875
1004,-87.890625
1005,-85.937500
1006,-87.890625
1007,-87.890625
1008,-89.843750
1009,-87.890625
1010,-83.984375
1011,-87.890625
1012,-85.937500
1013,-89.843750
1014,-87.890625
1015,-85.937500
1016,-87.890625
1017,-85.937500
1018,-87.890625
1019,-83.984375
1020,-91.796875
1021,-87.890625
1022,-87.890625
1023,-83.984375
1024,-85.937500
1025,-87.890625
1026,-85.937500
1027,-87.890625
1028,-87.890625
1029,-87.890625
1030,-87.890625
1031,-87.890625
1032,-82.031250
1033,-87.890625
1034,-85.937500
1035,-85.937500
1036,-87.890625
1037,-87.890625
1038,-87.890625
1039,-82.031250
1040,-87.890625
1041,-87.890625
1042,-83.984375
1043,-87.890625
1044,-85.937500
1045,-87.890625
1046,-85.937500
1047,-85.937500
1048,-87.890625
1049,-83.984375
1050,-87.890625
1051,-87.890625
1052,-85.937500
1053,-87.890625
1054,-85.937500
1055,-87.890625
1056,-83.984375
1057,-85.937500
1058,-83.984375
1059,-85.937500
1060,-87.890625
1061,-83.984375
1062,-87.890625
1063,-83.984375
1064,-87.890625
1065,-83.984375
1066,-85.937500
1067,-87.890625
1068,-82.031250
1069,-87.890625
1070,-85.937500
1071,-87.890625
1072,-85.937500
1073,-87.890625
1074,-87.890625
1075,-85.937500
1076,-87.890625
1077,-85.937500
1078,-85.937500
1079,-87.890625
1080,-82.031250
1081,-87.890625
1082,-85.937500
1083,-85.937500
1084,-87.890625
1085,-87.890625
1086,-85.937500
1087,-87.890625
1088,-83.984375
1089,-85.937500
1090,-85.937500
1091,-83.984375
1092,-87.890625
1093,-85.937500
1094,-85.937500
1095,-87.890625
1096,-83.984375
1097,-87.890625
1098,-85.937500
1099,-87.890625
1100,-83.984375
1101,-83.984375
1102,-87.890625
1103,-82.031250
1104,-87.890625
1105,-82.031250
1106,-87.890625
1107,-85.937500
1108,-85.937500
1109,-87.890625
1110,-82.031250
1111,-85.937500
1112,-85.937500
1113,-85.937500
1114,-87.890625
1115,-83.984375
1116,-91.796875
1117,-83.984375
1118,-87.890625
1119,-85.937500
1120,-83.984375
1121,-87.890625
1122,-82.031250
1123,-87.890625
1124,-83.984375
1125,-83.984375
1126,-87.890625
1127,-83.984375
1128,-83.984375
1129,-82.031250
1130,-83.984375
1131,-85.937500
1132,-70.312500
1133,-83.984375
1134,-85.937500
1135,-76.171875
1136,-85.937500
1137,-83.984375
1138,-83.984375
1139,-83.984375
1140,-83.984375
1141,-93.750000
1142,-87.890625
1143,-83.984375
1144,-83.984375
1145,-83.984375
1146,-85.937500
1147,-82.031250
1148,-83.984375
1149,-83.984375
1150,-76.171875
1151,-85.937500
1152,-82.031250
1153,-85.937500
1154,-85.937500
1155,-83.984375
1156,-83.984375
1157,-83.984375
1158,-85.937500
1159,-82.031250
1160,-83.984375
1161,-83.984375
1162,-83.984375
1163,-83.984375
1164,-82.031250
1165,-87.890625
1166,-83.984375
1167,-83.984375
1168,-85.937500
1169,-82.031250
1170,-83.984375
1171,-82.031250
1172,-83.984375
1173,-83.984375
1174,-82.031250
1175,-87.890625
1176,-82.031250
1177,-82.031250
1178,-87.890625
1179,-82.031250
1180,-85.937500
1181,-82.031250
1182,-85.937500
1183,-85.937500
1184,-83.984375
1185,-83.984375
1186,-83.984375
1187,-83.984375
1188,-83.984375
1189,-85.937500
1190,-83.984375
1191,-85.937500
1192,-83.984375
1193,-80.078125
1194,-83.984375
1195,-83.984375
1196,-82.031250
1197,-85.937500
1198,-83.984375
1199,-82.031250
1200,-83.984375
1201,-82.031250
1202,-83.984375
1203,-82.031250
1204,-83.984375
1205,-85.937500
1206,-83.984375
1207,-87.890625
1208,-82.031250
1209,-87.890625
1210,-83.984375
1211,-80.078125
1212,-87.890625
1213,-82.031250
1214,-85.937500
1215,-83.984375
1216,-83.984375
1217,-85.937500
1218,-82.031250
1219,-85.937500
1220,-83.984375
1221,-83.984375
1222,-83.984375
1223,-83.984375
1224,-85.937500
1225,-83.984375
1226,-85.937500
1227,-83.984375
1228,-85.937500
1229,-85.937500
1230,-82.031250
1231,-82.031250
1232,-83.984375
1233,-83.984375
1234,-82.031250
1235,-80.078125
1236,-85.937500
1237,-87.890625
1238,-83.984375
1239,-82.031250
1240,-83.984375
1241,-83.984375
1242,-85.937500
1243,-83.984375
1244,-85.937500
1245,-83.984375
1246,-83.984375
1247,-85.937500
1248,-85.937500
1249,-85.937500
1250,-82.031250
1251,-85.937500
1252,-82.031250
1253,-83.984375
1254,-82.031250
1255,-83.984375
1256,-87.890625
1257,-83.984375
1258,-85.937500
1259,-85.937500
1260,-82.031250
1261,-85.937500
1262,-82.031250
1263,-85.937500
1264,-85.937500
1265,-83.984375
1266,-87.890625
1267,-83.984375
1268,-87.890625
1269,-83.984375
1270,-83.984375
1271,-85.937500
1272,-83.984375
1273,-85.937500
1274,-83.984375
1275,-82.031250
1276,-85.937500
1277,-85.937500
1278,-83.984375
1279,-87.890625
1280,-85.937500
1281,-85.937500
1282,-83.984375
1283,-83.984375
1284,-95.703125
1285,-82.031250
1286,-85.937500
1287,-83.984375
1288,-85.937500
1289,-83.984375
1290,-83.984375
1291,-85.937500
1292,-82.031250
1293,-85.937500
1294,-83.984375
1295,-83.984375
1296,-85.937500
1297,-83.984375
1298,-87.890625
1299,-83.984375
1300,-85.937500
1301,-87.890625
1302,-78.125000
1303,-85.937500
1304,-85.937500
1305,-85.937500
1306,-85.937500
1307,-87.890625
1308,-87.890625
1309,-82.031250
1310,-87.890625
1311,-82.031250
1312,-85.937500
1313,-83.984375
1314,-87.890625
1315,-85.937500
1316,-85.937500
1317,-87.890625
1318,-83.984375
1319,-87.890625
1320,-87.890625
1321,-85.937500
1322,-87.890625
1323,-83.984375
1324,-83.984375
1325,-87.890625
1326,-85.937500
1327,-87.890625
1328,-83.984375
1329,-85.937500
1330,-85.937500
1331,-85.937500
1332,-87.890625
1333,-87.890625
1334,-85.937500
1335,-85.937500
1336,-85.937500
1337,-87.890625
1338,-87.890625
1339,-85.937500
1340,-87.890625
1341,-85.937500
1342,-85.937500
1343,-87.890625
1344,-83.984375
1345,-85.937500
1346,-87.890625
1347,-87.890625
1348,-85.937500
1349,-87.890625
1350,-87.890625
1351,-85.937500
1352,-87.890625
1353,-87.890625
1354,-87.890625
1355,-87.890625
1356,-87.890625
1357,-87.890625
1358,-87.890625
1359,-87.890625
1360,-87.890625
1361,-85.937500
1362,-89.843750
1363,-87.890625
1364,-85.937500
1365,-87.890625
1366,-87.890625
1367,-89.843750
1368,-87.890625
1369,-85.937500
1370,-87.890625
1371,-85.937500
1372,-87.890625
1373,-85.937500
1374,-85.937500
1375,-87.890625
1376,-83.984375
1377,-87.890625
1378,-85.937500
1379,-87.890625
1380,-85.937500
1381,-87.890625
1382,-87.890625
1383,-87.890625
1384,-85.937500
1385,-87.890625
1386,-87.890625
1387,-85.937500
1388,-87.890625
1389,-85.937500
1390,-83.984375
1391,-87.890625
1392,-83.984375
1393,-87.890625
1394,-85.937500
1395,-87.890625
1396,-85.937500
1397,-85.937500
1398,-85.937500
1399,-87.890625
1400,-87.890625
1401,-85.937500
1402,-87.890625
1403,-87.890625
1404,-87.890625
1405,-87.890625
1406,-87.890625
1407,-87.890625
1408,-83.984375
1409,-85.937500
1410,-87.890625
1411,-99.609375
1412,-87.890625
1413,-82.031250
1414,-85.937500
1415,-83.984375
1416,-83.984375
1417,-85.937500
1418,-87.890625
1419,-83.984375
1420,-82.031250
1421,-80.078125
1422,-78.125000
1423,-80.078125
1424,-82.031250
1425,-80.078125
1426,-80.078125
1427,-78.125000
1428,-78.125000
1429,-76.171875
1430,-78.125000
1431,-76.171875
1432,-76.171875
1433,-76.171875
1434,-78.125000
1435,-76.171875
1436,-76.171875
1437,-76.171875
1438,-74.218750
1439,-76.171875
1440,-76.171875
1441,-72.265625
1442,-72.265625
1443,-72.265625
1444,-72.265625
1445,-72.265625
1446,-72.265625
1447,-72.265625
1448,-70.312500
1449,-72.265625
1450,-70.312500
1451,-72.265625
1452,-72.265625
1453,-70.312500
1454,-72.265625
1455,-66.406250
1456,-72.265625
1457,-68.359375
1458,-72.265625
1459,-70.312500
1460,-68.359375
1461,-72.265625
1462,-64.453125
1463,-70.312500
1464,-72.265625
1465,-68.359375
1466,-68.359375
1467,-68.359375
1468,-68.359375
1469,-70.312500
1470,-68.359375
1471,-72.265625
1472,-60.546875
1473,-66.406250
1474,-70.312500
1475,-66.406250
1476,-68.359375
1477,-68.359375
1478,-66.406250
1479,-74.218750
1480,-66.406250
1481,-68.359375
1482,-68.359375
1483,-66.406250
1484,-66.406250
1485,-64.453125
1486,-66.406250
1487,-64.453125
1488,-64.453125
1489,-66.406250
1490,-64.453125
1491,-64.453125
1492,-64.453125
1493,-62.500000
1494,-64.453125
1495,-62.500000
1496,-50.781250
1497,-62.500000
1498,-62.500000
1499,-62.500000
1500,-60.546875
1501,-62.500000
1502,-60.546875
1503,-60.546875
1504,-60.546875
1505,-58.593750
1506,-56.640625
1507,-56.640625
1508,-56.640625
1509,-56.640625
1510,-56.640625
1511,-56.640625
1512,-50.781250
1513,-54.687500
1514,-52.734375
1515,-54.687500
1516,-48.828125
1517,-48.828125
1518,-48.828125
1519,-50.781250
1520,-39.062500
1521,-46.875000
1522,-46.875000
1523,-44.921875
1524,-39.062500
1525,-44.921875
1526,-42.968750
1527,-41.015625
1528,-44.921875
1529,-39.062500
1530,-41.015625
1531,-41.015625
1532,-39.062500
1533,-35.156250
1534,-37.109375
1535,-41.015625
1536,-41.015625
1537,-37.109375
1538,-39.062500
1539,-41.015625
1540,-41.015625
1541,-39.062500
1542,-37.109375
1543,-37.109375
1544,-37.109375
1545,-39.062500
1546,-39.062500
1547,-39.062500
1548,-39.062500
1549,-37.109375
1550,-39.062500
1551,-35.156250
1552,-39.062500
1553,-39.062500
1554,-39.062500
1555,-39.062500
1556,-39.062500
1557,-41.015625
1558,-37.109375
1559,-35.156250
1560,-41.015625
1561,-37.109375
1562,-41.015625
1563,-37.109375
1564,-29.296875
1565,-37.109375
1566,-39.062500
1567,-39.062500
1568,-39.062500
1569,-41.015625
1570,-39.062500
1571,-41.015625
1572,-39.062500
1573,-39.062500
1574,-39.062500
1575,-37.109375
1576,-41.015625
1577,-39.062500
1578,-37.109375
1579,-41.015625
1580,-37.109375
1581,-37.109375
1582,-37.109375
1583,-37.109375
1584,-41.015625
1585,-35.156250
1586,-37.109375
1587,-39.062500
1588,-37.109375
1589,-41.015625
1590,-39.062500
1591,-39.062500
1592,-39.062500
1593,-35.156250
1594,-39.062500
1595,-39.062500
1596,-41.015625
1597,-39.062500
1598,-37.109375
1599,-41.015625
1600,-33.203125
1601,-41.015625
1602,-39.062500
1603,-37.109375
1604,-41.015625
1605,-39.062500
1606,-39.062500
1607,-37.109375
1608,-41.015625
1609,-41.015625
1610,-41.015625
1611,-44.921875
1612,-46.875000
1613,-48.828125
1614,-50.781250
1615,-52.734375
1616,-52.734375
1617,-56.640625
1618,-56.640625
1619,-62.500000
1620,-48.828125
1621,-62.500000
1622,-64.453125
1623,-64.453125
1624,-70.312500
1625,-66.406250
1626,-70.312500
1627,-72.265625
1628,-72.265625
1629,-76.171875
1630,-76.171875
1631,-76.171875
1632,-76.171875
1633,-83.984375
1634,-80.078125
1635,-80.078125
1636,-80.078125
1637,-82.031250
1638,-82.031250
1639,-82.031250
1640,-82.031250
1641,-85.937500
1642,-83.984375
1643,-85.937500
1644,-85.937500
1645,-85.937500
1646,-85.937500
1647,-85.937500
1648,-85.937500
1649,-87.890625
1650,-85.937500
1651,-87.890625
1652,-87.890625
1653,-87.890625
1654,-91.796875
1655,-85.937500
1656,-87.890625
1657,-85.937500
1658,-87.890625
1659,-89.843750
1660,-87.890625
1661,-91.796875
1662,-87.890625
1663,-87.890625
1664,-89.843750
1665,-87.890625
1666,-89.843750
1667,-87.890625
1668,-89.843750
1669,-87.890625
1670,-89.843750
1671,-91.796875
1672,-91.796875
1673,-87.890625
1674,-91.796875
1675,-89.843750
1676,-91.796875
1677,-87.890625
1678,-91.796875
1679,-93.750000
1680,-87.890625
1681,-87.890625
1682,-91.796875
1683,-87.890625
1684,-91.796875
1685,-95.703125
1686,-87.890625
1687,-87.890625
1688,-85.937500
1689,-91.796875
1690,-87.890625
1691,-91.796875
1692,-87.890625
1693,-87.890625
1694,-91.796875
1695,-85.937500
1696,-87.890625
1697,-87.890625
1698,-87.890625
1699,-87.890625
1700,-87.890625
1701,-87.890625
1702,-87.890625
1703,-87.890625
1704,-87.890625
1705,-87.890625
1706,-87.890625
1707,-91.796875
1708,-87.890625
1709,-87.890625
1710,-87.890625
1711,-87.890625
1712,-87.890625
1713,-87.890625
1714,-91.796875
1715,-87.890625
1716,-87.890625
1717,-89.843750
1718,-87.890625
1719,-87.890625
1720,-87.890625
1721,-87.890625
1722,-85.937500
1723,-87.890625
1724,-87.890625
1725,-82.031250
1726,-89.843750
1727,-85.937500
1728,-87.890625
1729,-87.890625
1730,-85.937500
1731,-87.890625
1732,-83.984375
1733,-87.890625
1734,-87.890625
1735,-87.890625
1736,-87.890625
1737,-85.937500
1738,-87.890625
1739,-87.890625
1740,-85.937500
1741,-87.890625
1742,-87.890625
1743,-87.890625
1744,-87.890625
1745,-87.890625
1746,-87.890625
1747,-85.937500
1748,-87.890625
1749,-87.890625
1750,-85.937500
1751,-87.890625
1752,-85.937500
1753,-87.890625
1754,-85.937500
1755,-83.984375
1756,-87.890625
1757,-87.890625
1758,-87.890625
1759,-87.890625
1760,-87.890625
1761,-87.890625
1762,-87.890625
1763,-91.796875
1764,-85.937500
1765,-87.890625
1766,-87.890625
1767,-87.890625
1768,-87.890625
1769,-87.890625
1770,-87.890625
1771,-87.890625
1772,-87.890625
1773,-91.796875
1774,-87.890625
1775,-87.890625
1776,-85.937500
1777,-87.890625
1778,-87.890625
1779,-87.890625
1780,-87.890625
1781,-87.890625
1782,-85.937500
1783,-87.890625
1784,-87.890625
1785,-87.890625
1786,-87.890625
1787,-85.937500
1788,-87.890625
1789,-85.937500
1790,-87.890625
1791,-87.890625
1792,-85.937500
1793,-85.937500
1794,-85.937500
1795,-87.890625
1796,-85.937500
1797,-87.890625
1798,-87.890625
1799,-85.937500
1800,-87.890625
1801,-83.984375
1802,-87.890625
1803,-85.937500
1804,-85.937500
1805,-87.890625
1806,-85.937500
1807,-87.890625
1808,-83.984375
1809,-87.890625
1810,-87.890625
1811,-83.984375
1812,-87.890625
1813,-82.031250
1814,-87.890625
1815,-83.984375
1816,-105.468750
1817,-87.890625
1818,-85.937500
1819,-87.890625
1820,-85.937500
1821,-87.890625
1822,-83.984375
1823,-85.937500
1824,-87.890625
1825,-83.984375
1826,-87.890625
1827,-83.984375
1828,-87.890625
1829,-87.890625
1830,-83.984375
1831,-87.890625
1832,-83.984375
1833,-87.890625
1834,-87.890625
1835,-83.984375
1836,-87.890625
1837,-83.984375
1838,-85.937500
1839,-87.890625
1840,-85.937500
1841,-85.937500
1842,-85.937500
1843,-82.031250
1844,-85.937500
1845,-85.937500
1846,-85.937500
1847,-87.890625
1848,-83.984375
1849,-87.890625
1850,-85.937500
1851,-93.750000
1852,-87.890625
1853,-85.937500
1854,-87.890625
1855,-83.984375
1856,-85.937500
1857,-85.937500
1858,-87.890625
1859,-87.890625
1860,-83.984375
1861,-87.890625
1862,-85.937500
1863,-85.937500
1864,-85.937500
1865,-83.984375
1866,-87.890625
1867,-83.984375
1868,-87.890625
1869,-87.890625
1870,-85.937500
1871,-87.890625
1872,-85.937500
1873,-87.890625
1874,-85.937500
1875,-85.937500
1876,-85.937500
1877,-85.937500
1878,-83.984375
1879,-87.890625
1880,-85.937500
1881,-85.937500
1882,-83.984375
1883,-78.125000
1884,-83.984375
1885,-83.984375
1886,-85.937500
1887,-85.937500
1888,-85.937500
1889,-87.890625
1890,-97.656250
1891,-87.890625
1892,-83.984375
1893,-85.937500
1894,-85.937500
1895,-85.937500
1896,-87.890625
1897,-85.937500
1898,-85.937500
1899,-87.890625
1900,-85.937500
1901,-85.937500
1902,-85.937500
1903,-87.890625
1904,-87.890625
1905,-87.890625
1906,-87.890625
1907,-85.937500
1908,-82.031250
1909,-87.890625
1910,-87.890625
1911,-85.937500
1912,-74.218750
1913,-85.937500
1914,-87.890625
1915,-87.890625
1916,-91.796875
1917,-87.890625
1918,-87.890625
1919,-87.890625
1920,-85.937500
1921,-87.890625
1922,-87.890625
1923,-85.937500
1924,-87.890625
1925,-83.984375
1926,-87.890625
1927,-83.984375
1928,-85.937500
1929,-89.843750
1930,-83.984375
1931,-87.890625
1932,-85.937500
1933,-87.890625
1934,-85.937500
1935,-83.984375
1936,-87.890625
1937,-87.890625
1938,-85.937500
1939,-87.890625
1940,-85.937500
1941,-87.890625
1942,-87.890625
1943,-85.937500
1944,-87.890625
1945,-85.937500
1946,-89.843750
1947,-87.890625
1948,-85.937500
1949,-85.937500
1950,-87.890625
1951,-87.890625
1952,-85.937500
1953,-87.890625
1954,-87.890625
1955,-85.937500
1956,-91.796875
1957,-85.937500
1958,-91.796875
1959,-87.890625
1960,-85.937500
1961,-89.843750
1962,-87.890625
1963,-87.890625
1964,-87.890625
1965,-87.890625
1966,-87.890625
1967,-87.890625
1968,-87.890625
1969,-91.796875
1970,-87.890625
1971,-87.890625
1972,-85.937500
1973,-82.031250
1974,-87.890625
1975,-87.890625
1976,-87.890625
1977,-87.890625
1978,-87.890625
1979,-87.890625
1980,-87.890625
1981,-87.890625
1982,-87.890625
1983,-87.890625
1984,-87.890625
1985,-85.937500
1986,-87.890625
1987,-87.890625
1988,-87.890625
1989,-89.843750
1990,-85.937500
1991,-87.890625
1992,-85.937500
1993,-87.890625
1994,-85.937500
1995,-87.890625
1996,-87.890625
1997,-85.937500
1998,-91.796875
1999,-87.890625
2000,-87.890625
2001,-87.890625
2002,-87.890625
2003,-87.890625
2004,-85.937500
2005,-87.890625
2006,-87.890625
2007,-87.890625
2008,-80.078125
2009,-87.890625
2010,-87.890625
2011,-87.890625
2012,-87.890625
2013,-87.890625
2014,-91.796875
2015,-87.890625
2016,-87.890625
2017,-85.937500
2018,-87.890625
2019,-85.937500
2020,-87.890625
2021,-87.890625
2022,-87.890625
2023,-87.890625
2024,-87.890625
2025,-87.890625
2026,-85.937500
2027,-87.890625
2028,-87.890625
2029,-87.890625
2030,-91.796875
2031,-85.937500
2032,-87.890625
2033,-87.890625
2034,-87.890625
2035,-91.796875
2036,-83.984375
2037,-87.890625
2038,-87.890625
2039,-87.890625
2040,-87.890625
2041,-87.890625
2042,-87.890625
2043,-87.890625
2044,-87.890625
2045,-85.937500
2046,-87.890625
2047,-87.890625
2048,-87.890625
2049,-87.890625
2050,-87.890625
2051,-87.890625
2052,-89.843750
2053,-85.937500
2054,-87.890625
2055,-89.843750
2056,-82.031250
2057,-91.796875
2058,-89.843750
2059,-87.890625
2060,-87.890625
2061,-87.890625
2062,-87.890625
2063,-87.890625
2064,-87.890625
2065,-87.890625
2066,-91.796875
2067,-87.890625
2068,-87.890625
2069,-89.843750
2070,-87.890625
2071,-87.890625
2072,-87.890625
2073,-87.890625
2074,-87.890625
2075,-87.890625
2076,-87.890625
2077,-89.843750
2078,-82.031250
2079,-87.890625
2080,-87.890625
2081,-87.890625
2082,-85.937500
2083,-87.890625
2084,-87.890625
2085,-85.937500
2086,-87.890625
2087,-85.937500
2088,-85.937500
2089,-87.890625
2090,-87.890625
2091,-93.750000
2092,-87.890625
2093,-87.890625
2094,-87.890625
2095,-87.890625
2096,-89.843750
2097,-87.890625
2098,-87.890625
2099,-87.890625
2100,-87.890625
2101,-87.890625
2102,-87.890625
2103,-87.890625
2104,-87.890625
2105,-87.890625
2106,-87.890625
2107,-87.890625
2108,-87.890625
2109,-91.796875
2110,-87.890625
2111,-87.890625
2112,-87.890625
2113,-87.890625
2114,-87.890625
2115,-87.890625
2116,-87.890625
2117,-91.796875
2118,-87.890625
2119,-87.890625
2120,-87.890625
2121,-85.937500
2122,-85.937500
2123,-87.890625
2124,-87.890625
2125,-85.937500
2126,-91.796875
2127,-85.937500
2128,-85.937500
2129,-89.843750
2130,-91.796875
2131,-85.937500
2132,-87.890625
2133,-85.937500
2134,-87.890625
2135,-87.890625
2136,-87.890625
2137,-87.890625
2138,-85.937500
2139,-93.750000
2140,-87.890625
2141,-87.890625
2142,-87.890625
2143,-87.890625
2144,-87.890625
2145,-87.890625
2146,-87.890625
2147,-87.890625
2148,-87.890625
2149,-91.796875
2150,-87.890625
2151,-87.890625
2152,-89.843750
2153,-87.890625
2154,-87.890625
2155,-87.890625
2156,-89.843750
2157,-87.890625
2158,-87.890625
2159,-76.171875
2160,-87.890625
2161,-87.890625
2162,-87.890625
2163,-91.796875
2164,-87.890625
2165,-87.890625
2166,-87.890625
2167,-87.890625
2168,-87.890625
2169,-87.890625
2170,-87.890625
2171,-87.890625
2172,-85.937500
2173,-87.890625
2174,-85.937500
2175,-85.937500
2176,-87.890625
2177,-85.937500
2178,-85.937500
2179,-85.937500
2180,-85.937500
2181,-87.890625
2182,-83.984375
2183,-85.937500
2184,-85.937500
2185,-87.890625
2186,-87.890625
2187,-80.078125
2188,-83.984375
2189,-87.890625
2190,-83.984375
2191,-83.984375
2192,-83.984375
2193,-85.937500
2194,-83.984375
2195,-87.890625
2196,-85.937500
2197,-85.937500
2198,-85.937500
2199,-85.937500
2200,-82.031250
2201,-85.937500
2202,-87.890625
2203,-85.937500
2204,-85.937500
2205,-83.984375
2206,-87.890625
2207,-85.937500
2208,-85.937500
2209,-83.984375
2210,-83.984375
2211,-85.937500
2212,-83.984375
2213,-85.937500
2214,-87.890625
2215,-85.937500
2216,-85.937500
2217,-85.937500
2218,-87.890625
2219,-87.890625
2220,-85.937500
2221,-85.937500
2222,-83.984375
2223,-87.890625
2224,-82.031250
2225,-87.890625
2226,-85.937500
2227,-83.984375
2228,-87.890625
2229,-85.937500
2230,-85.937500
2231,-87.890625
2232,-83.984375
2233,-85.937500
2234,-85.937500
2235,-85.937500
2236,-85.937500
2237,-85.937500
2238,-85.937500
2239,-85.937500
2240,-83.984375
2241,-87.890625
2242,-85.937500
2243,-85.937500
2244,-85.937500
2245,-87.890625
2246,-87.890625
2247,-82.031250
2248,-87.890625
2249,-85.937500
2250,-85.937500
2251,-87.890625
2252,-83.984375
2253,-89.843750
2254,-85.937500
2255,-85.937500
2256,-85.937500
2257,-83.984375
2258,-87.890625
2259,-85.937500
2260,-87.890625
2261,-83.984375
2262,-87.890625
2263,-87.890625
2264,-85.937500
2265,-85.937500
2266,-87.890625
2267,-87.890625
2268,-87.890625
2269,-85.937500
2270,-87.890625
2271,-87.890625
2272,-85.937500
2273,-87.890625
2274,-83.984375
2275,-87.890625
2276,-85.937500
2277,-85.937500
2278,-91.796875
2279,-85.937500
2280,-85.937500
2281,-87.890625
2282,-85.937500
2283,-87.890625
2284,-85.937500
2285,-85.937500
2286,-85.937500
2287,-87.890625
2288,-85.937500
2289,-87.890625
2290,-82.031250
2291,-87.890625
2292,-87.890625
2293,-87.890625
2294,-87.890625
2295,-85.937500
2296,-87.890625
2297,-85.937500
2298,-87.890625
2299,-87.890625
2300,-87.890625
2301,-87.890625
2302,-87.890625
2303,-87.890625
2304,-85.937500
2305,-87.890625
2306,-91.796875
2307,-87.890625
2308,-87.890625
2309,-91.796875
2310,-87.890625
2311,-87.890625
2312,-87.890625
2313,-87.890625
2314,-87.890625
2315,-89.843750
2316,-87.890625
2317,-91.796875
2318,-87.890625
2319,-87.890625
2320,-87.890625
2321,-87.890625
2322,-93.750000
2323,-87.890625
2324,-87.890625
2325,-87.890625
2326,-68.359375
2327,-87.890625
2328,-87.890625
2329,-85.937500
2330,-89.843750
2331,-85.937500
2332,-87.890625
2333,-87.890625
2334,-85.937500
2335,-87.890625
2336,-85.937500
2337,-87.890625
2338,-87.890625
2339,-87.890625
2340,-87.890625
2341,-87.890625
2342,-87.890625
2343,-87.890625
2344,-85.937500
2345,-87.890625
2346,-87.890625
2347,-85.937500
2348,-91.796875
2349,-85.937500
2350,-87.890625
2351,-87.890625
2352,-85.937500
2353,-87.890625
2354,-87.890625
2355,-85.937500
2356,-87.890625
2357,-85.937500
2358,-89.843750
2359,-85.937500
2360,-87.890625
2361,-89.843750
2362,-85.937500
2363,-87.890625
2364,-87.890625
2365,-87.890625
2366,-87.890625
2367,-87.890625
2368,-87.890625
2369,-87.890625
2370,-87.890625
2371,-87.890625
2372,-85.937500
2373,-85.937500
2374,-85.937500
2375,-85.937500
2376,-87.890625
2377,-83.984375
2378,-87.890625
2379,-83.984375
2380,-82.031250
2381,-83.984375
2382,-80.078125
2383,-85.937500
2384,-80.078125
2385,-82.031250
2386,-82.031250
2387,-80.078125
2388,-80.078125
2389,-85.937500
2390,-80.078125
2391,-80.078125
2392,-78.125000
2393,-80.078125
2394,-78.125000
2395,-76.171875
2396,-82.031250
2397,-76.171875
2398,-70.312500
2399,-76.171875
2400,-76.171875
2401,-72.265625
2402,-72.265625
2403,-72.265625
2404,-72.265625
2405,-72.265625
2406,-72.265625
2407,-68.359375
2408,-72.265625
2409,-68.359375
2410,-66.406250
2411,-66.406250
2412,-64.453125
2413,-64.453125
2414,-60.546875
2415,-64.453125
2416,-64.453125
2417,-62.500000
2418,-60.546875
2419,-60.546875
2420,-60.546875
2421,-60.546875
2422,-52.734375
2423,-60.546875
2424,-56.640625
2425,-60.546875
2426,-56.640625
2427,-60.546875
2428,-56.640625
2429,-56.640625
2430,-58.593750
2431,-58.593750
2432,-56.640625
2433,-58.593750
2434,-58.593750
2435,-56.640625
2436,-60.546875
2437,-56.640625
2438,-56.640625
2439,-56.640625
2440,-60.546875
2441,-60.546875
2442,-56.640625
2443,-60.546875
2444,-60.546875
2445,-56.640625
2446,-60.546875
2447,-56.640625
2448,-60.546875
2449,-56.640625
2450,-60.546875
2451,-60.546875
2452,-60.546875
2453,-60.546875
2454,-56.640625
2455,-60.546875
2456,-56.640625
2457,-56.640625
2458,-58.593750
2459,-56.640625
2460,-60.546875
2461,-58.593750
2462,-60.546875
2463,-60.546875
2464,-56.640625
2465,-60.546875
2466,-60.546875
2467,-56.640625
2468,-60.546875
2469,-58.593750
2470,-60.546875
2471,-58.593750
2472,-56.640625
2473,-60.546875
2474,-56.640625
2475,-60.546875
2476,-56.640625
2477,-56.640625
2478,-58.593750
2479,-58.593750
2480,-60.546875
2481,-60.546875
2482,-56.640625
2483,-50.781250
2484,-56.640625
2485,-56.640625
2486,-58.593750
2487,-56.640625
2488,-56.640625
2489,-56.640625
2490,-56.640625
2491,-58.593750
2492,-56.640625
2493,-60.546875
2494,-56.640625
2495,-56.640625
2496,-64.453125
2497,-56.640625
2498,-60.546875
2499,-56.640625
2500,-60.546875
2501,-56.640625
2502,-56.640625
2503,-56.640625
2504,-56.640625
2505,-60.546875
2506,-56.640625
2507,-56.640625
2508,-56.640625
2509,-56.640625
2510,-56.640625
2511,-56.640625
2512,-56.640625
2513,-60.546875
2514,-60.546875
2515,-56.640625
2516,-56.640625
2517,-56.640625
2518,-56.640625
2519,-56.640625
2520,-56.640625
2521,-56.640625
2522,-56.640625
2523,-60.546875
2524,-56.640625
2525,-58.593750
2526,-56.640625
2527,-56.640625
2528,-60.546875
2529,-56.640625
2530,-54.687500
2531,-60.546875
2532,-56.640625
2533,-56.640625
2534,-56.640625
2535,-56.640625
2536,-60.546875
2537,-56.640625
2538,-56.640625
2539,-56.640625
2540,-60.546875
2541,-60.546875
2542,-60.546875
2543,-60.546875
2544,-56.640625
2545,-56.640625
2546,-60.546875
2547,-56.640625
2548,-60.546875
2549,-56.640625
2550,-56.640625
2551,-56.640625
2552,-56.640625
2553,-60.546875
2554,-56.640625
2555,-58.593750
2556,-56.640625
2557,-56.640625
2558,-60.546875
2559,-60.546875
2560,-58.593750
2561,-56.640625
2562,-60.546875
2563,-58.593750
2564,-60.546875
2565,-60.546875
2566,-56.640625
2567,-60.546875
2568,-56.640625
2569,-60.546875
2570,-56.640625
2571,-56.640625
2572,-56.640625
2573,-56.640625
2574,-56.640625
2575,-58.593750
2576,-56.640625
2577,-60.546875
2578,-56.640625
2579,-54.687500
2580,-60.546875
2581,-56.640625
2582,-56.640625
2583,-56.640625
2584,-56.640625
2585,-56.640625
2586,-52.734375
2587,-56.640625
2588,-52.734375
2589,-54.687500
2590,-58.593750
2591,-56.640625
2592,-56.640625
2593,-56.640625
2594,-56.640625
2595,-56.640625
2596,-54.687500
2597,-56.640625
2598,-56.640625
2599,-56.640625
2600,-56.640625
2601,-50.781250
2602,-60.546875
2603,-56.640625
2604,-54.687500
2605,-56.640625
2606,-56.640625
2607,-56.640625
2608,-58.593750
2609,-56.640625
2610,-60.546875
2611,-56.640625
2612,-60.546875
2613,-56.640625
2614,-56.640625
2615,-60.546875
2616,-58.593750
2617,-62.500000
2618,-56.640625
2619,-60.546875
2620,-62.500000
2621,-62.500000
2622,-64.453125
2623,-64.453125
2624,-66.406250
2625,-66.406250
2626,-66.406250
2627,-68.359375
2628,-68.359375
2629,-70.312500
2630,-70.312500
2631,-64.453125
2632,-72.265625
2633,-72.265625
2634,-72.265625
2635,-76.171875
2636,-72.265625
2637,-78.125000
2638,-76.171875
2639,-76.171875
2640,-78.125000
2641,-78.125000
2642,-80.078125
2643,-80.078125
2644,-64.453125
2645,-80.078125
2646,-80.078125
2647,-82.031250
2648,-82.031250
2649,-85.937500
2650,-82.031250
2651,-82.031250
2652,-85.937500
2653,-85.937500
2654,-85.937500
2655,-85.937500
2656,-83.984375
2657,-85.937500
2658,-83.984375
2659,-87.890625
2660,-82.031250
2661,-87.890625
2662,-85.937500
2663,-85.937500
2664,-85.937500
2665,-87.890625
2666,-85.937500
2667,-85.937500
2668,-85.937500
2669,-87.890625
2670,-87.890625
2671,-87.890625
2672,-87.890625
2673,-85.937500
2674,-95.703125
2675,-87.890625
2676,-87.890625
2677,-87.890625
2678,-87.890625
2679,-97.656250
2680,-87.890625
2681,-85.937500
2682,-89.843750
2683,-85.937500
2684,-87.890625
2685,-87.890625
2686,-87.890625
2687,-87.890625
2688,-87.890625
2689,-87.890625
2690,-87.890625
2691,-87.890625
2692,-85.937500
2693,-85.937500
2694,-87.890625
2695,-87.890625
2696,-87.890625
2697,-87.890625
2698,-87.890625
2699,-87.890625
2700,-87.890625
2701,-87.890625
2702,-87.890625
2703,-85.937500
2704,-87.890625
2705,-87.890625
2706,-87.890625
2707,-87.890625
2708,-87.890625
2709,-87.890625
2710,-82.031250
2711,-87.890625
2712,-87.890625
2713,-85.937500
2714,-87.890625
2715,-85.937500
2716,-87.890625
2717,-85.937500
2718,-87.890625
2719,-87.890625
2720,-87.890625
2721,-87.890625
2722,-87.890625
2723,-87.890625
2724,-87.890625
2725,-87.890625
2726,-89.843750
2727,-85.937500
2728,-87.890625
2729,-85.937500
2730,-87.890625
2731,-87.890625
2732,-85.937500
2733,-87.890625
2734,-87.890625
2735,-87.890625
2736,-87.890625
2737,-85.937500
2738,-87.890625
2739,-83.984375
2740,-93.750000
2741,-87.890625
2742,-85.937500
2743,-87.890625
2744,-85.937500
2745,-87.890625
2746,-87.890625
2747,-87.890625
2748,-87.890625
2749,-85.937500
2750,-87.890625
2751,-87.890625
2752,-87.890625
2753,-99.609375
2754,-87.890625
2755,-87.890625
2756,-87.890625
2757,-87.890625
2758,-87.890625
2759,-87.890625
2760,-87.890625
2761,-87.890625
2762,-91.796875
2763,-87.890625
2764,-87.890625
2765,-87.890625
2766,-85.937500
2767,-87.890625
2768,-87.890625
2769,-87.890625
2770,-91.796875
2771,-85.937500
2772,-87.890625
2773,-87.890625
2774,-87.890625
2775,-87.890625
2776,-87.890625
2777,-91.796875
2778,-87.890625
2779,-87.890625
2780,-87.890625
2781,-87.890625
2782,-87.890625
2783,-87.890625
2784,-87.890625
2785,-93.750000
2786,-87.890625
2787,-89.843750
2788,-82.031250
2789,-87.890625
2790,-87.890625
2791,-85.937500
2792,-87.890625
2793,-87.890625
2794,-87.890625
2795,-87.890625
2796,-87.890625
2797,-87.890625
2798,-82.031250
2799,-85.937500
2800,-82.031250
2801,-85.937500
2802,-85.937500
2803,-85.937500
2804,-87.890625
2805,-85.937500
2806,-85.937500
2807,-85.937500
2808,-83.984375
2809,-83.984375
2810,-80.078125
2811,-80.078125
2812,-82.031250
2813,-80.078125
2814,-76.171875
2815,-76.171875
2816,-72.265625
2817,-72.265625
2818,-70.312500
2819,-64.453125
2820,-64.453125
2821,-60.546875
2822,-56.640625
2823,-66.406250
2824,-50.781250
2825,-54.687500
2826,-46.875000
2827,-46.875000
2828,-44.921875
2829,-39.062500
2830,-41.015625
2831,-37.109375
2832,-35.156250
2833,-33.203125
2834,-29.296875
2835,-33.203125
2836,-29.296875
2837,-29.296875
2838,-29.296875
2839,-23.437500
2840,-25.390625
2841,-25.390625
2842,-23.437500
2843,-19.531250
2844,-17.578125
2845,-19.531250
2846,-17.578125
2847,-15.625000
2848,-17.578125
2849,-13.671875
2850,-17.578125
2851,-13.671875
2852,-15.625000
2853,-13.671875
2854,-9.765625
2855,-13.671875
2856,-13.671875
2857,-9.765625
2858,-13.671875
2859,-9.765625
2860,-9.765625
2861,-9.765625
2862,-9.765625
2863,-9.765625
2864,-5.859375
2865,-9.765625
2866,-9.765625
2867,-9.765625
2868,-9.765625
2869,-9.765625
2870,-9.765625
2871,-3.906250
2872,-7.812500
2873,-9.765625
2874,-5.859375
2875,-9.765625
2876,-3.906250
2877,-7.812500
2878,-7.812500
2879,-7.812500
2880,-9.765625
2881,-3.906250
2882,-7.812500
2883,-5.859375
2884,-5.859375
2885,-9.765625
2886,-5.859375
2887,-9.765625
2888,-5.859375
2889,-5.859375
2890,-7.812500
2891,-3.906250
2892,-7.812500
2893,-7.812500
2894,-7.812500
2895,-7.812500
2896,-5.859375
2897,-1.953125
2898,-5.859375
2899,-7.812500
2900,-5.859375
2901,-9.765625
2902,-7.812500
2903,-7.812500
2904,-9.765625
2905,-7.812500
2906,-7.812500
2907,-7.812500
2908,-9.765625
2909,-9.765625
2910,5.859375
2911,-7.812500
2912,-7.812500
2913,-7.812500
2914,-7.812500
2915,-3.906250
2916,-7.812500
2917,-7.812500
2918,-7.812500
2919,-9.765625
2920,-5.859375
2921,-9.765625
2922,-9.765625
2923,-3.906250
2924,-7.812500
2925,-3.906250
2926,-9.765625
2927,-5.859375
2928,-7.812500
2929,-9.765625
2930,-5.859375
2931,-9.765625
2932,-11.718750
2933,-7.812500
2934,-7.812500
2935,-5.859375
2936,-9.765625
2937,-5.859375
2938,-7.812500
2939,-7.812500
2940,-5.859375
2941,-9.765625
2942,-3.906250
2943,-7.812500
2944,-7.812500
2945,-9.765625
2946,-5.859375
2947,-5.859375
2948,-7.812500
2949,-7.812500
2950,-5.859375
2951,-5.859375
2952,-5.859375
2953,-5.859375
2954,-7.812500
2955,-7.812500
2956,-7.812500
2957,-5.859375
2958,-9.765625
2959,-5.859375
2960,-7.812500
2961,-9.765625
2962,-5.859375
2963,-9.765625
2964,-5.859375
2965,-7.812500
2966,-9.765625
2967,-7.812500
2968,-9.765625
2969,-5.859375
2970,-7.812500
2971,-9.765625
2972,-5.859375
2973,-9.765625
2974,-5.859375
2975,-7.812500
2976,-9.765625
2977,-7.812500
2978,-9.765625
2979,-5.859375
2980,-9.765625
2981,-3.906250
2982,-7.812500
2983,-9.765625
2984,1.953125
2985,-9.765625
2986,-5.859375
2987,-9.765625
2988,-7.812500
2989,-7.812500
2990,-7.812500
2991,-9.765625
2992,-9.765625
2993,-11.718750
2994,-5.859375
2995,-7.812500
2996,-7.812500
2997,-7.812500
2998,-9.765625
2999,-7.812500
3000,-9.765625
3001,-9.765625
3002,-9.765625
3003,-9.765625
3004,-7.812500
3005,-9.765625
3006,-7.812500
3007,-7.812500
3008,-9.765625
3009,-7.812500
3010,-9.765625
3011,-7.812500
3012,-9.765625
3013,-9.765625
3014,-9.765625
3015,-9.765625
3016,-7.812500
3017,-9.765625
3018,-9.765625
3019,-9.765625
3020,-9.765625
3021,-9.765625
3022,-9.765625
3023,-7.812500
3024,-9.765625
3025,-9.765625
3026,-9.765625
3027,-13.671875
3028,-9.765625
3029,-13.671875
3030,-15.625000
3031,-15.625000
3032,-19.531250
3033,-17.578125
3034,-17.578125
3035,-23.437500
3036,-21.484375
3037,-25.390625
3038,-27.343750
3039,-29.296875
3040,-31.250000
3041,-31.250000
3042,-35.156250
3043,-39.062500
3044,-41.015625
3045,-46.875000
3046,-44.921875
3047,-50.781250
3048,-50.781250
3049,-56.640625
3050,-54.687500
3051,-56.640625
3052,-64.453125
3053,-64.453125
3054,-68.359375
3055,-70.312500
3056,-72.265625
3057,-72.265625
3058,-56.640625
3059,-78.125000
3060,-76.171875
3061,-78.125000
3062,-80.078125
3063,-80.078125
3064,-80.078125
3065,-80.078125
3066,-83.984375
3067,-87.890625
3068,-85.937500
3069,-80.078125
3070,-85.937500
3071,-83.984375
3072,-82.031250
3073,-85.937500
3074,-85.937500
3075,-85.937500
3076,-82.031250
3077,-85.937500
3078,-85.937500
3079,-83.984375
3080,-87.890625
3081,-85.937500
3082,-85.937500
3083,-87.890625
3084,-85.937500
3085,-85.937500
3086,-87.890625
3087,-83.984375
3088,-87.890625
3089,-87.890625
3090,-87.890625
3091,-91.796875
3092,-87.890625
3093,-87.890625
3094,-91.796875
3095,-87.890625
3096,-87.890625
3097,-87.890625
3098,-87.890625
3099,-91.796875
3100,-87.890625
3101,-91.796875
3102,-85.937500
3103,-91.796875
3104,-87.890625
3105,-87.890625
3106,-87.890625
3107,-89.843750
3108,-87.890625
3109,-89.843750
3110,-91.796875
3111,-87.890625
3112,-87.890625
3113,-95.703125
3114,-87.890625
3115,-91.796875
3116,-87.890625
3117,-91.796875
3118,-91.796875
3119,-87.890625
3120,-91.796875
3121,-87.890625
3122,-87.890625
3123,-87.890625
3124,-87.890625
3125,-87.890625
3126,-87.890625
3127,-87.890625
3128,-101.562500
3129,-87.890625
3130,-87.890625
3131,-87.890625
3132,-87.890625
3133,-87.890625
3134,-85.937500
3135,-87.890625
3136,-87.890625
3137,-87.890625
3138,-87.890625
3139,-89.843750
3140,-87.890625
3141,-78.125000
3142,-85.937500
3143,-87.890625
3144,-87.890625
3145,-87.890625
3146,-85.937500
3147,-87.890625
3148,-87.890625
3149,-87.890625
3150,-85.937500
3151,-87.890625
3152,-89.843750
3153,-85.937500
3154,-85.937500
3155,-87.890625
3156,-87.890625
3157,-87.890625
3158,-83.984375
3159,-91.796875
3160,-85.937500
3161,-87.890625
3162,-87.890625
3163,-85.937500
3164,-87.890625
3165,-87.890625
3166,-87.890625
3167,-85.937500
3168,-87.890625
3169,-87.890625
3170,-87.890625
3171,-87.890625
3172,-83.984375
3173,-87.890625
3174,-87.890625
3175,-85.937500
3176,-82.031250
3177,-85.937500
3178,-85.937500
3179,-85.937500
3180,-91.796875
3181,-87.890625
3182,-87.890625
3183,-87.890625
3184,-87.890625
3185,-87.890625
3186,-87.890625
3187,-85.937500
3188,-85.937500
3189,-91.796875
3190,-85.937500
3191,-87.890625
3192,-83.984375
3193,-87.890625
3194,-83.984375
3195,-85.937500
3196,-85.937500
3197,-85.937500
3198,-85.937500
3199,-85.937500
3200,-85.937500
3201,-85.937500
3202,-80.078125
3203,-83.984375
3204,-83.984375
3205,-85.937500
3206,-83.984375
3207,-85.937500
3208,-85.937500
3209,-83.984375
3210,-83.984375
3211,-83.984375
3212,-85.937500
3213,-85.937500
3214,-83.984375
3215,-97.656250
3216,-91.796875
3217,-85.937500
3218,-85.937500
3219,-83.984375
3220,-85.937500
3221,-83.984375
3222,-85.937500
3223,-83.984375
3224,-87.890625
3225,-83.984375
3226,-82.031250
3227,-83.984375
3228,-82.031250
3229,-83.984375
3230,-83.984375
3231,-82.031250
3232,-85.937500
3233,-82.031250
3234,-85.937500
3235,-83.984375
3236,-82.031250
3237,-85.937500
3238,-83.984375
3239,-85.937500
3240,-83.984375
3241,-83.984375
3242,-83.984375
3243,-82.031250
3244,-83.984375
3245,-82.031250
3246,-87.890625
3247,-83.984375
3248,-83.984375
3249,-83.984375
3250,-87.890625
3251,-83.984375
3252,-82.031250
3253,-82.031250
3254,-83.984375
3255,-80.078125
3256,-85.937500
3257,-82.031250
3258,-83.984375
3259,-83.984375
3260,-85.937500
3261,-82.031250
3262,-82.031250
3263,-87.890625
3264,-83.984375
3265,-83.984375
3266,-83.984375
3267,-82.031250
3268,-85.937500
3269,-82.031250
3270,-82.031250
3271,-85.937500
3272,-87.890625
3273,-87.890625
3274,-83.984375
3275,-83.984375
3276,-85.937500
3277,-85.937500
3278,-85.937500
3279,-83.984375
3280,-83.984375
3281,-85.937500
3282,-83.984375
3283,-85.937500
3284,-83.984375
3285,-83.984375
3286,-83.984375
3287,-80.078125
3288,-85.937500
3289,-83.984375
3290,-82.031250
3291,-83.984375
3292,-82.031250
3293,-85.937500
3294,-83.984375
3295,-85.937500
3296,-82.031250
3297,-85.937500
3298,-82.031250
3299,-83.984375
3300,-83.984375
3301,-83.984375
3302,-85.937500
3303,-82.031250
3304,-85.937500
3305,-85.937500
3306,-82.031250
3307,-85.937500
3308,-76.171875
3309,-85.937500
3310,-83.984375
3311,-80.078125
3312,-87.890625
3313,-82.031250
3314,-85.937500
3315,-83.984375
3316,-85.937500
3317,-82.031250
3318,-85.937500
3319,-85.937500
3320,-82.031250
3321,-85.937500
3322,-80.078125
3323,-85.937500
3324,-95.703125
3325,-85.937500
3326,-85.937500
3327,-83.984375
3328,-85.937500
3329,-82.031250
3330,-83.984375
3331,-85.937500
3332,-82.031250
3333,-91.796875
3334,-80.078125
3335,-83.984375
3336,-85.937500
3337,-83.984375
3338,-87.890625
3339,-85.937500
3340,-82.031250
3341,-85.937500
3342,-85.937500
3343,-83.984375
3344,-85.937500
3345,-83.984375
3346,-82.031250
3347,-83.984375
3348,-85.937500
3349,-87.890625
3350,-83.984375
3351,-85.937500
3352,-85.937500
3353,-85.937500
3354,-85.937500
3355,-85.937500
3356,-87.890625
3357,-85.937500
3358,-87.890625
3359,-85.937500
3360,-87.890625
3361,-87.890625
3362,-87.890625
3363,-87.890625
3364,-85.937500
3365,-87.890625
3366,-87.890625
3367,-83.984375
3368,-87.890625
3369,-85.937500
3370,-87.890625
3371,-85.937500
3372,-91.796875
3373,-87.890625
3374,-83.984375
3375,-87.890625
3376,-85.937500
3377,-87.890625
3378,-87.890625
3379,-85.937500
3380,-85.937500
3381,-83.984375
3382,-87.890625
3383,-85.937500
3384,-83.984375
3385,-87.890625
3386,-85.937500
3387,-87.890625
3388,-85.937500
3389,-85.937500
3390,-87.890625
3391,-83.984375
3392,-87.890625
3393,-85.937500
3394,-87.890625
3395,-80.078125
3396,-85.937500
3397,-87.890625
3398,-83.984375
3399,-87.890625
3400,-85.937500
3401,-87.890625
3402,-87.890625
3403,-85.937500
3404,-87.890625
3405,-85.937500
3406,-87.890625
3407,-83.984375
3408,-85.937500
3409,-87.890625
3410,-87.890625
3411,-87.890625
3412,-87.890625
3413,-87.890625
3414,-87.890625
3415,-85.937500
3416,-87.890625
3417,-87.890625
3418,-87.890625
3419,-87.890625
3420,-87.890625
3421,-87.890625
3422,-87.890625
3423,-85.937500
3424,-87.890625
3425,-85.937500
3426,-87.890625
3427,-87.890625
3428,-87.890625
3429,-87.890625
3430,-85.937500
3431,-85.937500
3432,-85.937500
3433,-85.937500
3434,-87.890625
3435,-85.937500
3436,-87.890625
3437,-85.937500
3438,-87.890625
3439,-87.890625
3440,-85.937500
3441,-87.890625
3442,-85.937500
3443,-87.890625
3444,-85.937500
3445,-85.937500
3446,-87.890625
3447,-83.984375
3448,-87.890625
3449,-87.890625
3450,-87.890625
3451,-87.890625
3452,-85.937500
3453,-87.890625
3454,-85.937500
3455,-87.890625
3456,-85.937500
3457,-87.890625
3458,-87.890625
3459,-85.937500
3460,-87.890625
3461,-87.890625
3462,-87.890625
3463,-87.890625
3464,-83.984375
3465,-87.890625
3466,-87.890625
3467,-87.890625
3468,-95.703125
3469,-87.890625
3470,-87.890625
3471,-87.890625
3472,-87.890625
3473,-87.890625
3474,-85.937500
3475,-87.890625
3476,-87.890625
3477,-87.890625
3478,-87.890625
3479,-85.937500
3480,-87.890625
3481,-85.937500
3482,-89.843750
3483,-87.890625
3484,-85.937500
3485,-85.937500
3486,-83.984375
3487,-87.890625
3488,-87.890625
3489,-85.937500
3490,-91.796875
3491,-85.937500
3492,-87.890625
3493,-87.890625
3494,-87.890625
3495,-87.890625
3496,-85.937500
3497,-87.890625
3498,-85.937500
3499,-87.890625
3500,-87.890625
3501,-87.890625
3502,-87.890625
3503,-87.890625
3504,-87.890625
3505,-87.890625
3506,-87.890625
3507,-87.890625
3508,-85.937500
3509,-87.890625
3510,-87.890625
3511,-87.890625
3512,-93.750000
3513,-85.937500
3514,-87.890625
3515,-85.937500
3516,-82.031250
3517,-87.890625
3518,-87.890625
3519,-87.890625
3520,-87.890625
3521,-87.890625
3522,-87.890625
3523,-87.890625
3524,-87.890625
3525,-87.890625
3526,-87.890625
3527,-87.890625
3528,-85.937500
3529,-87.890625
3530,-85.937500
3531,-87.890625
3532,-85.937500
3533,-85.937500
3534,-87.890625
3535,-87.890625
3536,-87.890625
3537,-87.890625
3538,-91.796875
3539,-87.890625
3540,-82.031250
3541,-85.937500
3542,-87.890625
3543,-87.890625
3544,-87.890625
3545,-87.890625
3546,-87.890625
3547,-85.937500
3548,-87.890625
3549,-87.890625
3550,-87.890625
3551,-87.890625
3552,-87.890625
3553,-87.890625
3554,-85.937500
3555,-87.890625
3556,-87.890625
3557,-87.890625
3558,-91.796875
3559,-85.937500
3560,-87.890625
3561,-87.890625
3562,-87.890625
3563,-87.890625
3564,-87.890625
3565,-87.890625
3566,-87.890625
3567,-89.843750
3568,-83.984375
3569,-87.890625
3570,-87.890625
3571,-85.937500
3572,-89.843750
3573,-82.031250
3574,-87.890625
3575,-85.937500
3576,-85.937500
3577,-85.937500
3578,-82.031250
3579,-85.937500
3580,-82.031250
3581,-83.984375
3582,-83.984375
3583,-80.078125
3584,-83.984375
3585,-80.078125
3586,-80.078125
3587,-82.031250
3588,-80.078125
3589,-80.078125
3590,-80.078125
3591,-80.078125
3592,-80.078125
3593,-80.078125
3594,-80.078125
3595,-78.125000
3596,-78.125000
3597,-78.125000
3598,-78.125000
3599,-78.125000
3600,-80.078125
3601,-76.171875
3602,-80.078125
3603,-76.171875
3604,-80.078125
3605,-78.125000
3606,-76.171875
3607,-78.125000
3608,-76.171875
3609,-80.078125
3610,-76.171875
3611,-78.125000
3612,-78.125000
3613,-76.171875
3614,-80.078125
3615,-76.171875
3616,-80.078125
3617,-78.125000
3618,-78.125000
3619,-82.031250
3620,-76.171875
3621,-80.078125
3622,-78.125000
3623,-78.125000
3624,-80.078125
3625,-72.265625
3626,-82.031250
3627,-78.125000
3628,-82.031250
3629,-78.125000
3630,-78.125000
3631,-80.078125
3632,-76.171875
3633,-80.078125
3634,-76.171875
3635,-76.171875
3636,-80.078125
3637,-76.171875
3638,-62.500000
3639,-72.265625
3640,-78.125000
3641,-80.078125
3642,-78.125000
3643,-80.078125
3644,-78.125000
3645,-80.078125
3646,-80.078125
3647,-82.031250
3648,-80.078125
3649,-80.078125
3650,-80.078125
3651,-80.078125
3652,-80.078125
3653,-80.078125
3654,-78.125000
3655,-80.078125
3656,-80.078125
3657,-80.078125
3658,-80.078125
3659,-80.078125
3660,-80.078125
3661,-78.125000
3662,-80.078125
3663,-82.031250
3664,-78.125000
3665,-80.078125
3666,-78.125000
3667,-82.031250
3668,-80.078125
3669,-80.078125
3670,-82.031250
3671,-80.078125
3672,-82.031250
3673,-82.031250
3674,-82.031250
3675,-82.031250
3676,-80.078125
3677,-82.031250
3678,-82.031250
3679,-83.984375
3680,-83.984375
3681,-82.031250
3682,-82.031250
3683,-82.031250
3684,-83.984375
3685,-85.937500
3686,-72.265625
3687,-85.937500
3688,-82.031250
3689,-83.984375
3690,-82.031250
3691,-82.031250
3692,-83.984375
3693,-82.031250
3694,-85.937500
3695,-80.078125
3696,-83.984375
3697,-82.031250
3698,-82.031250
3699,-85.937500
3700,-82.031250
3701,-85.937500
3702,-83.984375
3703,-85.937500
3704,-85.937500
3705,-82.031250
3706,-85.937500
3707,-83.984375
3708,-87.890625
3709,-83.984375
3710,-85.937500
3711,-87.890625
3712,-83.984375
3713,-87.890625
3714,-85.937500
3715,-83.984375
3716,-85.937500
3717,-83.984375
3718,-87.890625
3719,-85.937500
3720,-85.937500
3721,-87.890625
3722,-83.984375
3723,-87.890625
3724,-85.937500
3725,-83.984375
3726,-87.890625
3727,-85.937500
3728,-87.890625
3729,-87.890625
3730,-87.890625
3731,-87.890625
3732,-83.984375
3733,-85.937500
3734,-103.515625
3735,-85.937500
3736,-87.890625
3737,-85.937500
3738,-87.890625
3739,-85.937500
3740,-85.937500
3741,-87.890625
3742,-85.937500
3743,-87.890625
3744,-83.984375
3745,-85.937500
3746,-87.890625
3747,-91.796875
3748,-87.890625
3749,-87.890625
3750,-87.890625
3751,-87.890625
3752,-85.937500
3753,-87.890625
3754,-85.937500
3755,-87.890625
3756,-87.890625
3757,-87.890625
3758,-87.890625
3759,-87.890625
3760,-87.890625
3761,-85.937500
3762,-87.890625
3763,-80.078125
3764,-87.890625
3765,-89.843750
3766,-87.890625
3767,-87.890625
3768,-87.890625
3769,-87.890625
3770,-87.890625
3771,-83.984375
3772,-87.890625
3773,-87.890625
3774,-91.796875
3775,-87.890625
3776,-87.890625
3777,-87.890625
3778,-87.890625
3779,-87.890625
3780,-89.843750
3781,-87.890625
3782,-87.890625
3783,-87.890625
3784,-87.890625
3785,-91.796875
3786,-85.937500
3787,-91.796875
3788,-87.890625
3789,-87.890625
3790,-87.890625
3791,-85.937500
3792,-87.890625
3793,-87.890625
3794,-87.890625
3795,-85.937500
3796,-87.890625
3797,-87.890625
3798,-83.984375
3799,-89.843750
3800,-87.890625
3801,-87.890625
3802,-87.890625
3803,-83.984375
3804,-87.890625
3805,-87.890625
3806,-91.796875
3807,-87.890625
3808,-87.890625
3809,-87.890625
3810,-87.890625
3811,-87.890625
3812,-87.890625
3813,-91.796875
3814,-85.937500
3815,-91.796875
3816,-85.937500
3817,-87.890625
3818,-91.796875
3819,-85.937500
3820,-91.796875
3821,-82.031250
3822,-87.890625
3823,-83.984375
3824,-85.937500
3825,-87.890625
3826,-87.890625
3827,-87.890625
3828,-87.890625
3829,-85.937500
3830,-87.890625
3831,-87.890625
3832,-87.890625
3833,-87.890625
3834,-93.750000
3835,-87.890625
3836,-87.890625
3837,-85.937500
3838,-91.796875
3839,-85.937500
3840,-85.937500
3841,-87.890625
3842,-85.937500
3843,-85.937500
3844,-87.890625
3845,-83.984375
3846,-85.937500
3847,-83.984375
3848,-87.890625
3849,-82.031250
3850,-85.937500
3851,-82.031250
3852,-82.031250
3853,-85.937500
3854,-82.031250
3855,-85.937500
3856,-80.078125
3857,-80.078125
3858,-82.031250
3859,-82.031250
3860,-82.031250
3861,-80.078125
3862,-82.031250
3863,-80.078125
3864,-80.078125
3865,-82.031250
3866,-80.078125
3867,-80.078125
3868,-80.078125
3869,-80.078125
3870,-80.078125
3871,-80.078125
3872,-82.031250
3873,-80.078125
3874,-80.078125
3875,-80.078125
3876,-80.078125
3877,-80.078125
3878,-80.078125
3879,-80.078125
3880,-80.078125
3881,-78.125000
3882,-82.031250
3883,-78.125000
3884,-80.078125
3885,-78.125000
3886,-76.171875
3887,-76.171875
3888,-74.218750
3889,-76.171875
3890,-76.171875
3891,-76.171875
3892,-76.171875
3893,-76.171875
3894,-74.218750
3895,-74.218750
3896,-76.171875
3897,-72.265625
3898,-70.312500
3899,-72.265625
3900,-72.265625
3901,-70.312500
3902,-72.265625
3903,-70.312500
3904,-72.265625
3905,-68.359375
3906,-70.312500
3907,-68.359375
3908,-68.359375
3909,-68.359375
3910,-66.406250
3911,-70.312500
3912,-66.406250
3913,-66.406250
3914,-66.406250
3915,-66.406250
3916,-68.359375
3917,-64.453125
3918,-64.453125
3919,-64.453125
3920,-64.453125
3921,-66.406250
3922,-64.453125
3923,-64.453125
3924,-64.453125
3925,-62.500000
3926,-64.453125
3927,-60.546875
3928,-62.500000
3929,-60.546875
3930,-64.453125
3931,-62.500000
3932,-60.546875
3933,-62.500000
3934,-60.546875
3935,-60.546875
3936,-60.546875
3937,-56.640625
3938,-62.500000
3939,-60.546875
3940,-58.593750
3941,-60.546875
3942,-60.546875
3943,-66.406250
3944,-60.546875
3945,-60.546875
3946,-56.640625
3947,-60.546875
3948,-62.500000
3949,-60.546875
3950,-60.546875
3951,-60.546875
3952,-58.593750
3953,-60.546875
3954,-60.546875
3955,-60.546875
3956,-60.546875
3957,-62.500000
3958,-60.546875
3959,-60.546875
3960,-60.546875
3961,-60.546875
3962,-60.546875
3963,-58.593750
3964,-60.546875
3965,-62.500000
3966,-60.546875
3967,-62.500000
3968,-60.546875
3969,-60.546875
3970,-60.546875
3971,-62.500000
3972,-62.500000
3973,-56.640625
3974,-60.546875
3975,-60.546875
3976,-56.640625
3977,-62.500000
3978,-56.640625
3979,-60.546875
3980,-60.546875
3981,-60.546875
3982,-60.546875
3983,-60.546875
3984,-62.500000
3985,-60.546875
3986,-60.546875
3987,-60.546875
3988,-56.640625
3989,-62.500000
3990,-56.640625
3991,-62.500000
3992,-60.546875
3993,-56.640625
3994,-60.546875
3995,-60.546875
3996,-60.546875
3997,-60.546875
3998,-60.546875
3999,-56.640625
4000,-60.546875
4001,-60.546875
4002,-60.546875
4003,-60.546875
4004,-60.546875
4005,-60.546875
4006,-62.500000
4007,-60.546875
4008,-60.546875
4009,-60.546875
4010,-60.546875
4011,-62.500000
4012,-60.546875
4013,-60.546875
4014,-62.500000
4015,-60.546875
4016,-60.546875
4017,-60.546875
4018,-62.500000
4019,-62.500000
4020,-60.546875
4021,-62.500000
4022,-56.640625
4023,-62.500000
4024,-62.500000
4025,-62.500000
4026,-62.500000
4027,-62.500000
4028,-62.500000
4029,-62.500000
4030,-64.453125
4031,-64.453125
4032,-60.546875
4033,-66.406250
4034,-64.453125
4035,-64.453125
4036,-66.406250
4037,-66.406250
4038,-68.359375
4039,-66.406250
4040,-66.406250
4041,-66.406250
4042,-66.406250
4043,-70.312500
4044,-68.359375
4045,-70.312500
4046,-70.312500
4047,-70.312500
4048,-72.265625
4049,-72.265625
4050,-72.265625
4051,-76.171875
4052,-72.265625
4053,-76.171875
4054,-72.265625
4055,-76.171875
4056,-76.171875
4057,-72.265625
4058,-80.078125
4059,-76.171875
4060,-78.125000
4061,-76.171875
4062,-78.125000
4063,-82.031250
4064,-80.078125
4065,-80.078125
4066,-80.078125
4067,-82.031250
4068,-80.078125
4069,-82.031250
4070,-80.078125
4071,-80.078125
4072,-97.656250
4073,-80.078125
4074,-80.078125
4075,-83.984375
4076,-80.078125
4077,-82.031250
4078,-80.078125
4079,-83.984375
4080,-83.984375
4081,-80.078125
4082,-83.984375
4083,-82.031250
4084,-82.031250
4085,-83.984375
4086,-82.031250
4087,-82.031250
4088,-83.984375
4089,-82.031250
4090,-83.984375
4091,-82.031250
4092,-82.031250
4093,-83.984375
4094,-80.078125
4095,-85.937500
4096,-82.031250
4097,-80.078125
4098,-83.984375
4099,-82.031250
4100,-80.078125
4101,-82.031250
4102,-85.937500
4103,-83.984375
4104,-83.984375
4105,-85.937500
4106,-82.031250
4107,-82.031250
4108,-85.937500
4109,-83.984375
4110,-85.937500
4111,-85.937500
4112,-85.937500
4113,-87.890625
4114,-85.937500
4115,-87.890625
4116,-85.937500
4117,-83.984375
4118,-85.937500
4119,-83.984375
4120,-87.890625
4121,-85.937500
4122,-87.890625
4123,-85.937500
4124,-85.937500
4125,-85.937500
4126,-85.937500
4127,-85.937500
4128,-85.937500
4129,-85.937500
4130,-87.890625
4131,-85.937500
4132,-87.890625
4133,-83.984375
4134,-87.890625
4135,-85.937500
4136,-83.984375
4137,-87.890625
4138,-85.937500
4139,-87.890625
4140,-87.890625
4141,-89.843750
4142,-87.890625
4143,-87.890625
4144,-87.890625
4145,-87.890625
4146,-87.890625
4147,-87.890625
4148,-87.890625
4149,-87.890625
4150,-91.796875
4151,-87.890625
4152,-89.843750
4153,-85.937500
4154,-87.890625
4155,-87.890625
4156,-87.890625
4157,-91.796875
4158,-85.937500
4159,-91.796875
4160,-87.890625
4161,-83.984375
4162,-91.796875
4163,-85.937500
4164,-91.796875
4165,-87.890625
4166,-87.890625
4167,-91.796875
4168,-87.890625
4169,-87.890625
4170,-87.890625
4171,-87.890625
4172,-87.890625
4173,-87.890625
4174,-83.984375
4175,-87.890625
4176,-87.890625
4177,-91.796875
4178,-87.890625
4179,-91.796875
4180,-89.843750
4181,-87.890625
4182,-91.796875
4183,-85.937500
4184,-87.890625
4185,-87.890625
4186,-87.890625
4187,-87.890625
4188,-87.890625
4189,-89.843750
4190,-91.796875
4191,-87.890625
4192,-91.796875
4193,-87.890625
4194,-95.703125
4195,-87.890625
4196,-93.750000
4197,-87.890625
4198,-87.890625
4199,-91.796875
4200,-87.890625
4201,-91.796875
4202,-87.890625
4203,-91.796875
4204,-91.796875
4205,-87.890625
4206,-93.750000
4207,-87.890625
4208,-87.890625
4209,-87.890625
4210,-89.843750
4211,-89.843750
4212,-87.890625
4213,-87.890625
4214,-89.843750
4215,-91.796875
4216,-89.843750
4217,-89.843750
4218,-87.890625
4219,-91.796875
4220,-87.890625
4221,-91.796875
4222,-87.890625
4223,-87.890625
4224,-91.796875
4225,-87.890625
4226,-91.796875
4227,-87.890625
4228,-87.890625
4229,-87.890625
4230,-87.890625
4231,-91.796875
4232,-87.890625
4233,-87.890625
4234,-89.843750
4235,-87.890625
4236,-89.843750
4237,-87.890625
4238,-87.890625
4239,-87.890625
4240,-87.890625
4241,-91.796875
4242,-87.890625
4243,-91.796875
4244,-87.890625
4245,-87.890625
4246,-87.890625
4247,-85.937500
4248,-87.890625
4249,-87.890625
4250,-87.890625
4251,-91.796875
4252,-91.796875
4253,-87.890625
4254,-87.890625
4255,-87.890625
4256,-89.843750
4257,-87.890625
4258,-87.890625
4259,-87.890625
4260,-87.890625
4261,-91.796875
4262,-87.890625
4263,-91.796875
4264,-87.890625
4265,-87.890625
4266,-87.890625
4267,-85.937500
4268,-87.890625
4269,-87.890625
4270,-87.890625
4271,-87.890625
4272,-85.937500
4273,-91.796875
4274,-85.937500
4275,-87.890625
4276,-87.890625
4277,-87.890625
4278,-87.890625
4279,-87.890625
4280,-87.890625
4281,-87.890625
4282,-87.890625
4283,-87.890625
4284,-85.937500
4285,-87.890625
4286,-85.937500
4287,-85.937500
4288,-87.890625
4289,-87.890625
4290,-87.890625
4291,-87.890625
4292,-91.796875
4293,-87.890625
4294,-85.937500
4295,-87.890625
4296,-85.937500
4297,-89.843750
4298,-87.890625
4299,-87.890625
4300,-87.890625
4301,-87.890625
4302,-87.890625
4303,-87.890625
4304,-87.890625
4305,-93.750000
4306,-87.890625
4307,-85.937500
4308,-87.890625
4309,-87.890625
4310,-91.796875
4311,-85.937500
4312,-87.890625
4313,-87.890625
4314,-87.890625
4315,-85.937500
4316,-87.890625
4317,-87.890625
4318,-91.796875
4319,-87.890625
4320,-91.796875
4321,-87.890625
4322,-85.937500
4323,-85.937500
4324,-89.843750
4325,-87.890625
4326,-87.890625
4327,-83.984375
4328,-87.890625
4329,-87.890625
4330,-87.890625
4331,-85.937500
4332,-87.890625
4333,-87.890625
4334,-87.890625
4335,-87.890625
4336,-89.843750
4337,-87.890625
4338,-87.890625
4339,-85.937500
4340,-87.890625
4341,-87.890625
4342,-87.890625
4343,-85.937500
4344,-87.890625
4345,-87.890625
4346,-87.890625
4347,-87.890625
4348,-87.890625
4349,-87.890625
4350,-87.890625
4351,-87.890625
4352,-87.890625
4353,-85.937500
4354,-87.890625
4355,-87.890625
4356,-87.890625
4357,-87.890625
4358,-91.796875
4359,-91.796875
4360,-87.890625
4361,-87.890625
4362,-87.890625
4363,-87.890625
4364,-87.890625
4365,-87.890625
4366,-87.890625
4367,-85.937500
4368,-87.890625
4369,-87.890625
4370,-87.890625
4371,-87.890625
4372,-87.890625
4373,-87.890625
4374,-87.890625
4375,-87.890625
4376,-87.890625
4377,-87.890625
4378,-89.843750
4379,-91.796875
4380,-87.890625
4381,-87.890625
4382,-87.890625
4383,-91.796875
4384,-85.937500
4385,-87.890625
4386,-87.890625
4387,-85.937500
4388,-87.890625
4389,-85.937500
4390,-91.796875
4391,-87.890625
4392,-91.796875
4393,-89.843750
4394,-85.937500
4395,-91.796875
4396,-89.843750
4397,-87.890625
4398,-87.890625
4399,-87.890625
4400,-87.890625
4401,-85.937500
4402,-87.890625
4403,-87.890625
4404,-87.890625
4405,-87.890625
4406,-87.890625
4407,-87.890625
4408,-87.890625
4409,-87.890625
4410,-91.796875
4411,-87.890625
4412,-89.843750
4413,-87.890625
4414,-91.796875
4415,-89.843750
4416,-85.937500
4417,-91.796875
4418,-89.843750
4419,-91.796875
4420,-89.843750
4421,-87.890625
4422,-87.890625
4423,-83.984375
4424,-87.890625
4425,-87.890625
4426,-85.937500
4427,-87.890625
4428,-85.937500
4429,-87.890625
4430,-87.890625
4431,-85.937500
4432,-87.890625
4433,-83.984375
4434,-91.796875
4435,-85.937500
4436,-87.890625
4437,-87.890625
4438,-83.984375
4439,-87.890625
4440,-85.937500
4441,-87.890625
4442,-85.937500
4443,-83.984375
4444,-89.843750
4445,-82.031250
4446,-87.890625
4447,-87.890625
4448,-85.937500
4449,-87.890625
4450,-85.937500
4451,-87.890625
4452,-83.984375
4453,-87.890625
4454,-85.937500
4455,-85.937500
4456,-87.890625
4457,-83.984375
4458,-87.890625
4459,-85.937500
4460,-85.937500
4461,-87.890625
4462,-87.890625
4463,-87.890625
4464,-87.890625
4465,-87.890625
4466,-87.890625
4467,-83.984375
4468,-87.890625
4469,-85.937500
4470,-87.890625
4471,-85.937500
4472,-85.937500
4473,-87.890625
4474,-87.890625
4475,-83.984375
4476,-87.890625
4477,-85.937500
4478,-87.890625
4479,-85.937500
4480,-83.984375
4481,-87.890625
4482,-85.937500
4483,-87.890625
4484,-82.031250
4485,-85.937500
4486,-85.937500
4487,-83.984375
4488,-87.890625
4489,-85.937500
4490,-87.890625
4491,-87.890625
4492,-85.937500
4493,-85.937500
4494,-85.937500
4495,-87.890625
4496,-83.984375
4497,-87.890625
4498,-87.890625
4499,-85.937500
4500,-87.890625
4501,-85.937500
4502,-85.937500
4503,-85.937500
4504,-87.890625
4505,-87.890625
4506,-85.937500
4507,-87.890625
4508,-83.984375
4509,-87.890625
4510,-85.937500
4511,-85.937500
4512,-87.890625
4513,-83.984375
4514,-87.890625
4515,-83.984375
4516,-83.984375
4517,-87.890625
4518,-83.984375
4519,-83.984375
4520,-82.031250
4521,-85.937500
4522,-76.171875
4523,-83.984375
4524,-85.937500
4525,-82.031250
4526,-83.984375
4527,-82.031250
4528,-83.984375
4529,-82.031250
4530,-82.031250
4531,-82.031250
4532,-85.937500
4533,-80.078125
4534,-82.031250
4535,-80.078125
4536,-72.265625
4537,-80.078125
4538,-80.078125
4539,-80.078125
4540,-78.125000
4541,-80.078125
4542,-82.031250
4543,-80.078125
4544,-80.078125
4545,-78.125000
4546,-78.125000
4547,-78.125000
4548,-78.125000
4549,-80.078125
4550,-76.171875
4551,-78.125000
4552,-72.265625
4553,-72.265625
4554,-76.171875
4555,-72.265625
4556,-76.171875
4557,-72.265625
4558,-70.312500
4559,-72.265625
4560,-70.312500
4561,-70.312500
4562,-68.359375
4563,-72.265625
4564,-64.453125
4565,-68.359375
4566,-64.453125
4567,-64.453125
4568,-70.312500
4569,-60.546875
4570,-64.453125
4571,-60.546875
4572,-62.500000
4573,-62.500000
4574,-60.546875
4575,-62.500000
4576,-60.546875
4577,-60.546875
4578,-60.546875
4579,-58.593750
4580,-60.546875
4581,-56.640625
4582,-56.640625
4583,-58.593750
4584,-56.640625
4585,-56.640625
4586,-56.640625
4587,-56.640625
4588,-60.546875
4589,-56.640625
4590,-54.687500
4591,-56.640625
4592,-54.687500
4593,-60.546875
4594,-56.640625
4595,-56.640625
4596,-58.593750
4597,-68.359375
4598,-56.640625
4599,-60.546875
4600,-58.593750
4601,-60.546875
4602,-56.640625
4603,-60.546875
4604,-56.640625
4605,-60.546875
4606,-56.640625
4607,-56.640625
4608,-56.640625
4609,-56.640625
4610,-56.640625
4611,-54.687500
4612,-56.640625
4613,-60.546875
4614,-60.546875
4615,-56.640625
4616,-60.546875
4617,-54.687500
4618,-60.546875
4619,-60.546875
4620,-56.640625
4621,-56.640625
4622,-56.640625
4623,-56.640625
4624,-56.640625
4625,-60.546875
4626,-56.640625
4627,-56.640625
4628,-58.593750
4629,-58.593750
4630,-60.546875
4631,-56.640625
4632,-60.546875
4633,-56.640625
4634,-56.640625
4635,-56.640625
4636,-58.593750
4637,-58.593750
4638,-56.640625
4639,-56.640625
4640,-56.640625
4641,-56.640625
4642,-56.640625
4643,-60.546875
4644,-56.640625
4645,-56.640625
4646,-58.593750
4647,-56.640625
4648,-60.546875
4649,-56.640625
4650,-60.546875
4651,-60.546875
4652,-56.640625
4653,-60.546875
4654,-60.546875
4655,-60.546875
4656,-56.640625
4657,-58.593750
4658,-60.546875
4659,-56.640625
4660,-60.546875
4661,-56.640625
4662,-62.500000
4663,-56.640625
4664,-56.640625
4665,-60.546875
4666,-56.640625
4667,-56.640625
4668,-56.640625
4669,-60.546875
4670,-60.546875
4671,-58.593750
4672,-60.546875
4673,-60.546875
4674,-58.593750
4675,-60.546875
4676,-60.546875
4677,-58.593750
4678,-60.546875
4679,-60.546875
4680,-60.546875
4681,-60.546875
4682,-56.640625
4683,-56.640625
4684,-56.640625
4685,-60.546875
4686,-56.640625
4687,-60.546875
4688,-60.546875
4689,-60.546875
4690,-60.546875
4691,-56.640625
4692,-60.546875
4693,-56.640625
4694,-60.546875
4695,-60.546875
4696,-58.593750
4697,-60.546875
4698,-56.640625
4699,-60.546875
4700,-56.640625
4701,-56.640625
4702,-60.546875
4703,-56.640625
4704,-62.500000
4705,-56.640625
4706,-60.546875
4707,-60.546875
4708,-56.640625
4709,-60.546875
4710,-56.640625
4711,-58.593750
4712,-58.593750
4713,-56.640625
4714,-60.546875
4715,-56.640625
4716,-60.546875
4717,-56.640625
4718,-60.546875
4719,-60.546875
4720,-56.640625
4721,-60.546875
4722,-56.640625
4723,-60.546875
4724,-62.500000
4725,-56.640625
4726,-60.546875
4727,-56.640625
4728,-60.546875
4729,-62.500000
4730,-60.546875
4731,-60.546875
4732,-60.546875
4733,-60.546875
4734,-62.500000
4735,-60.546875
4736,-62.500000
4737,-62.500000
4738,-62.500000
4739,-66.406250
4740,-64.453125
4741,-64.453125
4742,-64.453125
4743,-64.453125
4744,-66.406250
4745,-64.453125
4746,-68.359375
4747,-66.406250
4748,-72.265625
4749,-70.312500
4750,-70.312500
4751,-72.265625
4752,-72.265625
4753,-72.265625
4754,-87.890625
4755,-72.265625
4756,-76.171875
4757,-72.265625
4758,-76.171875
4759,-74.218750
4760,-76.171875
4761,-76.171875
4762,-76.171875
4763,-78.125000
4764,-76.171875
4765,-76.171875
4766,-76.171875
4767,-78.125000
4768,-80.078125
4769,-78.125000
4770,-80.078125
4771,-80.078125
4772,-76.171875
4773,-80.078125
4774,-83.984375
4775,-80.078125
4776,-76.171875
4777,-80.078125
4778,-82.031250
4779,-80.078125
4780,-82.031250
4781,-80.078125
4782,-80.078125
4783,-82.031250
4784,-80.078125
4785,-82.031250
4786,-82.031250
4787,-82.031250
4788,-83.984375
4789,-80.078125
4790,-82.031250
4791,-80.078125
4792,-82.031250
4793,-83.984375
4794,-80.078125
4795,-85.937500
4796,-82.031250
4797,-83.984375
4798,-82.031250
4799,-83.984375
4800,-82.031250
4801,-82.031250
4802,-83.984375
4803,-85.937500
4804,-85.937500
4805,-85.937500
4806,-83.984375
4807,-87.890625
4808,-85.937500
4809,-85.937500
4810,-85.937500
4811,-89.843750
4812,-87.890625
4813,-87.890625
4814,-87.890625
4815,-78.125000
4816,-87.890625
4817,-85.937500
4818,-85.937500
4819,-87.890625
4820,-87.890625
4821,-91.796875
4822,-87.890625
4823,-87.890625
4824,-91.796875
4825,-85.937500
4826,-87.890625
4827,-87.890625
4828,-87.890625
4829,-95.703125
4830,-85.937500
4831,-87.890625
4832,-87.890625
4833,-87.890625
4834,-91.796875
4835,-85.937500
4836,-87.890625
4837,-87.890625
4838,-93.750000
4839,-87.890625
4840,-87.890625
4841,-87.890625
4842,-91.796875
4843,-87.890625
4844,-87.890625
4845,-87.890625
4846,-87.890625
4847,-87.890625
4848,-91.796875
4849,-87.890625
4850,-85.937500
4851,-87.890625
4852,-87.890625
4853,-87.890625
4854,-87.890625
4855,-87.890625
4856,-87.890625
4857,-87.890625
4858,-87.890625
4859,-87.890625
4860,-87.890625
4861,-87.890625
4862,-89.843750
4863,-95.703125
4864,-87.890625
4865,-87.890625
4866,-87.890625
4867,-87.890625
4868,-87.890625
4869,-91.796875
4870,-87.890625
4871,-87.890625
4872,-87.890625
4873,-87.890625
4874,-87.890625
4875,-87.890625
4876,-91.796875
4877,-87.890625
4878,-87.890625
4879,-87.890625
4880,-85.937500
4881,-91.796875
4882,-87.890625
4883,-87.890625
4884,-93.750000
4885,-85.937500
4886,-87.890625
4887,-87.890625
4888,-87.890625
4889,-87.890625
4890,-87.890625
4891,-87.890625
4892,-87.890625
4893,-87.890625
4894,-87.890625
4895,-89.843750
4896,-87.890625
4897,-87.890625
4898,-87.890625
4899,-87.890625
4900,-85.937500
4901,-87.890625
4902,-85.937500
4903,-85.937500
4904,-93.750000
4905,-87.890625
4906,-91.796875
4907,-87.890625
4908,-91.796875
4909,-87.890625
4910,-87.890625
4911,-87.890625
4912,-87.890625
4913,-87.890625
4914,-87.890625
4915,-89.843750
4916,-87.890625
4917,-87.890625
4918,-87.890625
4919,-87.890625
4920,-87.890625
4921,-91.796875
4922,-87.890625
4923,-87.890625
4924,-87.890625
4925,-87.890625
4926,-91.796875
4927,-87.890625
4928,-87.890625
4929,-91.796875
4930,-87.890625
4931,-87.890625
4932,-87.890625
4933,-87.890625
4934,-91.796875
4935,-87.890625
4936,-91.796875
4937,-87.890625
4938,-91.796875
4939,-91.796875
4940,-82.031250
4941,-91.796875
4942,-87.890625
4943,-89.843750
4944,-87.890625
4945,-87.890625
4946,-95.703125
4947,-87.890625
4948,-87.890625
4949,-87.890625
4950,-87.890625
4951,-91.796875
4952,-89.843750
4953,-91.796875
4954,-87.890625
4955,-87.890625
4956,-87.890625
4957,-87.890625
4958,-87.890625
4959,-87.890625
4960,-93.750000
4961,-91.796875
4962,-87.890625
4963,-91.796875
4964,-85.937500
4965,-87.890625
4966,-91.796875
4967,-87.890625
4968,-87.890625
4969,-87.890625
4970,-87.890625
4971,-91.796875
4972,-87.890625
4973,-89.843750
4974,-87.890625
4975,-87.890625
4976,-87.890625
4977,-85.937500
4978,-89.843750
4979,-85.937500
4980,-87.890625
4981,-87.890625
4982,-87.890625
4983,-85.937500
4984,-87.890625
4985,-85.937500
4986,-87.890625
4987,-85.937500
4988,-87.890625
4989,-85.937500
4990,-87.890625
4991,-87.890625
4992,-85.937500
4993,-87.890625
4994,-95.703125
4995,-85.937500
4996,-87.890625
4997,-85.937500
4998,-87.890625
4999,-85.937500
5000,-87.890625
5001,-85.937500
5002,-87.890625
5003,-87.890625
5004,-83.984375
5005,-87.890625
5006,-85.937500
5007,-87.890625
5008,-87.890625
5009,-85.937500
5010,-91.796875
5011,-83.984375
5012,-87.890625
5013,-87.890625
5014,-85.937500
5015,-87.890625
5016,-85.937500
5017,-87.890625
5018,-87.890625
5019,-85.937500
5020,-87.890625
5021,-85.937500
5022,-89.843750
5023,-85.937500
5024,-87.890625
5025,-87.890625
5026,-85.937500
5027,-87.890625
5028,-87.890625
5029,-83.984375
5030,-87.890625
5031,-85.937500
5032,-85.937500
5033,-87.890625
5034,-83.984375
5035,-87.890625
5036,-85.937500
5037,-85.937500
5038,-91.796875
5039,-83.984375
5040,-87.890625
5041,-83.984375
5042,-87.890625
5043,-82.031250
5044,-85.937500
5045,-87.890625
5046,-85.937500
5047,-87.890625
5048,-85.937500
5049,-85.937500
5050,-85.937500
5051,-85.937500
5052,-87.890625
5053,-83.984375
5054,-87.890625
5055,-83.984375
5056,-87.890625
5057,-87.890625
5058,-83.984375
5059,-87.890625
5060,-87.890625
5061,-85.937500
5062,-85.937500
5063,-91.796875
5064,-87.890625
5065,-85.937500
5066,-89.843750
5067,-85.937500
5068,-91.796875
5069,-87.890625
5070,-87.890625
5071,-91.796875
5072,-87.890625
5073,-87.890625
5074,-85.937500
5075,-87.890625
5076,-87.890625
5077,-87.890625
5078,-87.890625
5079,-87.890625
5080,-85.937500
5081,-87.890625
5082,-82.031250
5083,-87.890625
5084,-87.890625
5085,-85.937500
5086,-87.890625
5087,-87.890625
5088,-87.890625
5089,-87.890625
5090,-91.796875
5091,-87.890625
5092,-87.890625
5093,-87.890625
5094,-87.890625
5095,-87.890625
5096,-91.796875
5097,-87.890625
5098,-87.890625
5099,-87.890625
5100,-87.890625
5101,-87.890625
5102,-87.890625
5103,-95.703125
5104,-87.890625
5105,-87.890625
5106,-87.890625
5107,-87.890625
5108,-87.890625
5109,-87.890625
5110,-87.890625
5111,-87.890625
5112,-87.890625
5113,-87.890625
5114,-87.890625
5115,-85.937500
5116,-85.937500
5117,-87.890625
5118,-87.890625
5119,-87.890625
5120,-87.890625
5121,-85.937500
5122,-85.937500
5123,-87.890625
5124,-93.750000
5125,-82.031250
5126,-87.890625
5127,-87.890625
5128,-87.890625
5129,-87.890625
5130,-85.937500
5131,-87.890625
5132,-85.937500
5133,-87.890625
5134,-85.937500
5135,-87.890625
5136,-87.890625
5137,-85.937500
5138,-85.937500
5139,-85.937500
5140,-85.937500
5141,-85.937500
5142,-85.937500
5143,-87.890625
5144,-87.890625
5145,-85.937500
5146,-87.890625
5147,-83.984375
5148,-87.890625
5149,-83.984375
5150,-85.937500
5151,-91.796875
5152,-82.031250
5153,-87.890625
5154,-85.937500
5155,-87.890625
5156,-87.890625
5157,-85.937500
5158,-87.890625
5159,-82.031250
5160,-85.937500
5161,-83.984375
5162,-87.890625
5163,-85.937500
5164,-82.031250
5165,-87.890625
5166,-85.937500
5167,-85.937500
5168,-85.937500
5169,-83.984375
5170,-87.890625
5171,-85.937500
5172,-85.937500
5173,-83.984375
5174,-85.937500
5175,-85.937500
5176,-85.937500
5177,-85.937500
5178,-85.937500
5179,-83.984375
5180,-85.937500
5181,-83.984375
5182,-85.937500
5183,-83.984375
5184,-82.031250
5185,-85.937500
5186,-80.078125
5187,-85.937500
5188,-87.890625
5189,-82.031250
5190,-87.890625
5191,-85.937500
5192,-83.984375
5193,-85.937500
5194,-82.031250
5195,-85.937500
5196,-83.984375
5197,-85.937500
5198,-83.984375
5199,-87.890625
5200,-85.937500
5201,-83.984375
5202,-87.890625
5203,-83.984375
5204,-83.984375
5205,-85.937500
5206,-83.984375
5207,-85.937500
5208,-83.984375
5209,-87.890625
5210,-83.984375
5211,-82.031250
5212,-85.937500
5213,-83.984375
5214,-83.984375
5215,-83.984375
5216,-82.031250
5217,-83.984375
5218,-80.078125
5219,-85.937500
5220,-83.984375
5221,-83.984375
5222,-83.984375
5223,-82.031250
5224,-83.984375
5225,-82.031250
5226,-82.031250
5227,-85.937500
5228,-82.031250
5229,-82.031250
5230,-82.031250
5231,-80.078125
5232,-82.031250
5233,-80.078125
5234,-82.031250
5235,-82.031250
5236,-82.031250
5237,-83.984375
5238,-80.078125
5239,-85.937500
5240,-80.078125
5241,-82.031250
5242,-82.031250
5243,-80.078125
5244,-83.984375
5245,-80.078125
5246,-82.031250
5247,-82.031250
5248,-80.078125
5249,-82.031250
5250,-80.078125
5251,-83.984375
5252,-78.125000
5253,-82.031250
5254,-82.031250
5255,-80.078125
5256,-80.078125
5257,-78.125000
5258,-78.125000
5259,-78.125000
5260,-80.078125
5261,-80.078125
5262,-80.078125
5263,-80.078125
5264,-80.078125
5265,-78.125000
5266,-80.078125
5267,-76.171875
5268,-80.078125
5269,-78.125000
5270,-80.078125
5271,-80.078125
5272,-78.125000
5273,-76.171875
5274,-78.125000
5275,-78.125000
5276,-80.078125
5277,-76.171875
5278,-72.265625
5279,-78.125000
5280,-78.125000
5281,-80.078125
5282,-76.171875
5283,-80.078125
5284,-74.218750
5285,-78.125000
5286,-80.078125
5287,-78.125000
5288,-80.078125
5289,-76.171875
5290,-80.078125
5291,-78.125000
5292,-80.078125
5293,-80.078125
5294,-80.078125
5295,-80.078125
5296,-76.171875
5297,-80.078125
5298,-80.078125
5299,-80.078125
5300,-78.125000
5301,-76.171875
5302,-76.171875
5303,-78.125000
5304,-76.171875
5305,-78.125000
5306,-76.171875
5307,-78.125000
5308,-78.125000
5309,-76.171875
5310,-78.125000
5311,-72.265625
5312,-76.171875
5313,-72.265625
5314,-72.265625
5315,-76.171875
5316,-78.125000
5317,-76.171875
5318,-76.171875
5319,-76.171875
5320,-70.312500
5321,-76.171875
5322,-76.171875
5323,-72.265625
5324,-76.171875
5325,-72.265625
5326,-76.171875
5327,-76.171875
5328,-76.171875
5329,-76.171875
5330,-72.265625
5331,-72.265625
5332,-74.218750
5333,-76.171875
5334,-70.312500
5335,-72.265625
5336,-76.171875
5337,-76.171875
5338,-72.265625
5339,-76.171875
5340,-72.265625
5341,-72.265625
5342,-76.171875
5343,-72.265625
5344,-76.171875
5345,-72.265625
5346,-76.171875
5347,-87.890625
5348,-72.265625
5349,-76.171875
5350,-72.265625
5351,-72.265625
5352,-78.125000
5353,-76.171875
5354,-76.171875
5355,-74.218750
5356,-74.218750
5357,-76.171875
5358,-76.171875
5359,-76.171875
5360,-74.218750
5361,-76.171875
5362,-76.171875
5363,-76.171875
5364,-76.171875
5365,-74.218750
5366,-76.171875
5367,-76.171875
5368,-76.171875
5369,-78.125000
5370,-74.218750
5371,-76.171875
5372,-74.218750
5373,-76.171875
5374,-76.171875
5375,-74.218750
5376,-76.171875
5377,-72.265625
5378,-76.171875
5379,-76.171875
5380,-76.171875
5381,-80.078125
5382,-72.265625
5383,-76.171875
5384,-74.218750
5385,-72.265625
5386,-76.171875
5387,-74.218750
5388,-78.125000
5389,-72.265625
5390,-76.171875
5391,-78.125000
5392,-74.218750
5393,-76.171875
5394,-72.265625
5395,-76.171875
5396,-76.171875
5397,-76.171875
5398,-80.078125
5399,-72.265625
5400,-80.078125
5401,-80.078125
5402,-80.078125
5403,-78.125000
5404,-78.125000
5405,-80.078125
5406,-78.125000
5407,-82.031250
5408,-80.078125
5409,-78.125000
5410,-82.031250
5411,-80.078125
5412,-80.078125
5413,-80.078125
5414,-82.031250
5415,-83.984375
5416,-70.312500
5417,-80.078125
5418,-83.984375
5419,-80.078125
5420,-83.984375
5421,-82.031250
5422,-82.031250
5423,-85.937500
5424,-82.031250
5425,-85.937500
5426,-83.984375
5427,-85.937500
5428,-83.984375
5429,-83.984375
5430,-87.890625
5431,-83.984375
5432,-85.937500
5433,-85.937500
5434,-70.312500
5435,-85.937500
5436,-83.984375
5437,-85.937500
5438,-85.937500
5439,-87.890625
5440,-85.937500
5441,-85.937500
5442,-87.890625
5443,-87.890625
5444,-80.078125
5445,-87.890625
5446,-85.937500
5447,-87.890625
5448,-83.984375
5449,-93.750000
5450,-85.937500
5451,-87.890625
5452,-87.890625
5453,-87.890625
5454,-87.890625
5455,-85.937500
5456,-87.890625
5457,-87.890625
5458,-87.890625
5459,-89.843750
5460,-87.890625
5461,-89.843750
5462,-85.937500
5463,-87.890625
5464,-87.890625
5465,-87.890625
5466,-87.890625
5467,-87.890625
5468,-87.890625
5469,-87.890625
5470,-91.796875
5471,-87.890625
5472,-87.890625
5473,-87.890625
5474,-91.796875
5475,-87.890625
5476,-87.890625
5477,-87.890625
5478,-87.890625
5479,-87.890625
5480,-87.890625
5481,-87.890625
5482,-87.890625
5483,-85.937500
5484,-87.890625
5485,-87.890625
5486,-87.890625
5487,-85.937500
5488,-87.890625
5489,-85.937500
5490,-85.937500
5491,-87.890625
5492,-85.937500
5493,-87.890625
5494,-87.890625
5495,-101.562500
5496,-83.984375
5497,-85.937500
5498,-87.890625
5499,-85.937500
5500,-87.890625
5501,-85.937500
5502,-85.937500
5503,-87.890625
5504,-85.937500
5505,-91.796875
5506,-87.890625
5507,-87.890625
5508,-87.890625
5509,-85.937500
5510,-91.796875
5511,-87.890625
5512,-87.890625
5513,-87.890625
5514,-85.937500
5515,-87.890625
5516,-87.890625
5517,-91.796875
5518,-91.796875
5519,-87.890625
5520,-85.937500
5521,-87.890625
5522,-87.890625
5523,-89.843750
5524,-85.937500
5525,-87.890625
5526,-85.937500
5527,-87.890625
5528,-87.890625
5529,-85.937500
5530,-89.843750
5531,-85.937500
5532,-87.890625
5533,-87.890625
5534,-85.937500
5535,-87.890625
5536,-85.937500
5537,-87.890625
5538,-87.890625
5539,-85.937500
5540,-91.796875
5541,-85.937500
5542,-87.890625
5543,-74.218750
5544,-87.890625
5545,-87.890625
5546,-83.984375
5547,-87.890625
5548,-83.984375
5549,-87.890625
5550,-87.890625
5551,-85.937500
5552,-85.937500
5553,-85.937500
5554,-87.890625
5555,-87.890625
5556,-95.703125
5557,-91.796875
5558,-87.890625
5559,-87.890625
5560,-87.890625
5561,-87.890625
5562,-87.890625
5563,-85.937500
5564,-89.843750
5565,-87.890625
5566,-87.890625
5567,-87.890625
5568,-89.843750
5569,-85.937500
5570,-87.890625
5571,-89.843750
5572,-85.937500
5573,-91.796875
5574,-85.937500
5575,-91.796875
5576,-87.890625
5577,-87.890625
5578,-89.843750
5579,-87.890625
5580,-87.890625
5581,-87.890625
5582,-85.937500
5583,-91.796875
5584,-87.890625
5585,-87.890625
5586,-87.890625
5587,-87.890625
5588,-87.890625
5589,-85.937500
5590,-85.937500
5591,-107.421875
5592,-85.937500
5593,-87.890625
5594,-87.890625
5595,-85.937500
5596,-87.890625
5597,-87.890625
5598,-91.796875
5599,-87.890625
5600,-87.890625
5601,-87.890625
5602,-87.890625
5603,-91.796875
5604,-87.890625
5605,-91.796875
5606,-87.890625
5607,-85.937500
5608,-87.890625
5609,-83.984375
5610,-87.890625
5611,-87.890625
5612,-91.796875
5613,-87.890625
5614,-85.937500
5615,-87.890625
5616,-87.890625
5617,-87.890625
5618,-87.890625
5619,-87.890625
5620,-91.796875
5621,-87.890625
5622,-87.890625
5623,-87.890625
5624,-85.937500
5625,-87.890625
5626,-87.890625
5627,-85.937500
5628,-91.796875
5629,-85.937500
5630,-87.890625
5631,-87.890625
5632,-85.937500
5633,-91.796875
5634,-83.984375
5635,-87.890625
5636,-87.890625
5637,-72.265625
5638,-87.890625
5639,-87.890625
5640,-87.890625
5641,-89.843750
5642,-87.890625
5643,-87.890625
5644,-87.890625
5645,-87.890625
5646,-85.937500
5647,-87.890625
5648,-87.890625
5649,-87.890625
5650,-91.796875
5651,-87.890625
5652,-89.843750
5653,-87.890625
5654,-87.890625
5655,-87.890625
5656,-87.890625
5657,-91.796875
5658,-87.890625
5659,-87.890625
5660,-87.890625
5661,-87.890625
5662,-87.890625
5663,-87.890625
5664,-87.890625
5665,-87.890625
5666,-93.750000
5667,-87.890625
5668,-87.890625
5669,-87.890625
5670,-87.890625
5671,-87.890625
5672,-91.796875
5673,-87.890625
5674,-87.890625
5675,-87.890625
5676,-87.890625
5677,-89.843750
5678,-87.890625
5679,-93.750000
5680,-87.890625
5681,-87.890625
5682,-89.843750
5683,-80.078125
5684,-91.796875
5685,-95.703125
5686,-87.890625
5687,-87.890625
5688,-85.937500
5689,-87.890625
5690,-87.890625
5691,-91.796875
5692,-91.796875
5693,-87.890625
5694,-87.890625
5695,-87.890625
5696,-87.890625
5697,-87.890625
5698,-85.937500
5699,-87.890625
5700,-72.265625
5701,-91.796875
5702,-87.890625
5703,-91.796875
5704,-87.890625
5705,-87.890625
5706,-89.843750
5707,-87.890625
5708,-87.890625
5709,-91.796875
5710,-87.890625
5711,-87.890625
5712,-87.890625
5713,-85.937500
5714,-87.890625
5715,-87.890625
5716,-91.796875
5717,-87.890625
5718,-87.890625
5719,-87.890625
5720,-87.890625
5721,-95.703125
5722,-87.890625
5723,-87.890625
5724,-87.890625
5725,-91.796875
5726,-87.890625
5727,-87.890625
5728,-87.890625
5729,-87.890625
5730,-87.890625
5731,-87.890625
5732,-87.890625
5733,-85.937500
5734,-87.890625
5735,-87.890625
5736,-87.890625
5737,-80.078125
5738,-87.890625
5739,-87.890625
5740,-87.890625
5741,-85.937500
5742,-87.890625
5743,-89.843750
5744,-87.890625
5745,-91.796875
5746,-87.890625
5747,-87.890625
5748,-91.796875
5749,-87.890625
5750,-87.890625
5751,-87.890625
5752,-91.796875
5753,-91.796875
5754,-89.843750
5755,-89.843750
5756,-87.890625
5757,-89.843750
5758,-87.890625
5759,-87.890625
5760,-87.890625
5761,-103.515625
5762,-91.796875
5763,-87.890625
5764,-87.890625
5765,-89.843750
5766,-87.890625
5767,-89.843750
5768,-89.843750
5769,-87.890625
5770,-95.703125
5771,-87.890625
5772,-91.796875
5773,-87.890625
5774,-95.703125
5775,-87.890625
5776,-87.890625
5777,-87.890625
5778,-87.890625
5779,-87.890625
5780,-91.796875
5781,-85.937500
5782,-91.796875
5783,-87.890625
5784,-87.890625
5785,-91.796875
5786,-87.890625
5787,-87.890625
5788,-87.890625
5789,-91.796875
5790,-91.796875
5791,-87.890625
5792,-87.890625
5793,-87.890625
5794,-87.890625
5795,-87.890625
5796,-85.937500
5797,-87.890625
5798,-87.890625
5799,-87.890625
5800,-87.890625
5801,-87.890625
5802,-89.843750
5803,-85.937500
5804,-87.890625
5805,-89.843750
5806,-87.890625
5807,-87.890625
5808,-87.890625
5809,-87.890625
5810,-87.890625
5811,-87.890625
5812,-87.890625
5813,-85.937500
5814,-87.890625
5815,-83.984375
5816,-87.890625
5817,-85.937500
5818,-87.890625
5819,-87.890625
5820,-85.937500
5821,-87.890625
5822,-103.515625
5823,-87.890625
5824,-87.890625
5825,-85.937500
5826,-91.796875
5827,-85.937500
5828,-87.890625
5829,-87.890625
5830,-83.984375
5831,-85.937500
5832,-85.937500
5833,-85.937500
5834,-87.890625
5835,-85.937500
5836,-87.890625
5837,-85.937500
5838,-87.890625
5839,-87.890625
5840,-85.937500
5841,-82.031250
5842,-87.890625
5843,-85.937500
5844,-89.843750
5845,-85.937500
5846,-87.890625
5847,-87.890625
5848,-87.890625
5849,-91.796875
5850,-85.937500
5851,-87.890625
5852,-87.890625
5853,-87.890625
5854,-91.796875
5855,-87.890625
5856,-89.843750
5857,-85.937500
5858,-85.937500
5859,-87.890625
5860,-87.890625
5861,-87.890625
5862,-87.890625
5863,-87.890625
5864,-87.890625
5865,-87.890625
5866,-85.937500
5867,-87.890625
5868,-87.890625
5869,-87.890625
5870,-80.078125
5871,-87.890625
5872,-87.890625
5873,-85.937500
5874,-87.890625
5875,-82.031250
5876,-87.890625
5877,-85.937500
5878,-85.937500
5879,-87.890625
5880,-82.031250
5881,-85.937500
5882,-83.984375
5883,-83.984375
5884,-85.937500
5885,-82.031250
5886,-82.031250
5887,-82.031250
5888,-78.125000
5889,-85.937500
5890,-80.078125
5891,-82.031250
5892,-80.078125
5893,-82.031250
5894,-82.031250
5895,-80.078125
5896,-80.078125
5897,-82.031250
5898,-80.078125
5899,-82.031250
5900,-80.078125
5901,-78.125000
5902,-78.125000
5903,-80.078125
5904,-80.078125
5905,-76.171875
5906,-80.078125
5907,-74.218750
5908,-74.218750
5909,-76.171875
5910,-72.265625
5911,-76.171875
5912,-72.265625
5913,-72.265625
5914,-72.265625
5915,-72.265625
5916,-72.265625
5917,-66.406250
5918,-70.312500
5919,-66.406250
5920,-66.406250
5921,-68.359375
5922,-66.406250
5923,-68.359375
5924,-64.453125
5925,-64.453125
5926,-66.406250
5927,-64.453125
5928,-64.453125
5929,-64.453125
5930,-64.453125
5931,-60.546875
5932,-64.453125
5933,-60.546875
5934,-64.453125
5935,-60.546875
5936,-62.500000
5937,-60.546875
5938,-60.546875
5939,-62.500000
5940,-60.546875
5941,-62.500000
5942,-56.640625
5943,-62.500000
5944,-60.546875
5945,-56.640625
5946,-62.500000
5947,-60.546875
5948,-62.500000
5949,-60.546875
5950,-60.546875
5951,-62.500000
5952,-60.546875
5953,-60.546875
5954,-60.546875
5955,-62.500000
5956,-62.500000
5957,-60.546875
5958,-62.500000
5959,-56.640625
5960,-60.546875
5961,-62.500000
5962,-62.500000
5963,-62.500000
5964,-60.546875
5965,-60.546875
5966,-64.453125
5967,-62.500000
5968,-60.546875
5969,-62.500000
5970,-60.546875
5971,-60.546875
5972,-60.546875
5973,-60.546875
5974,-56.640625
5975,-60.546875
5976,-60.546875
5977,-60.546875
5978,-62.500000
5979,-58.593750
5980,-62.500000
5981,-60.546875
5982,-60.546875
5983,-62.500000
5984,-60.546875
5985,-60.546875
5986,-62.500000
5987,-60.546875
5988,-58.593750
5989,-60.546875
5990,-60.546875
5991,-62.500000
5992,-62.500000
5993,-60.546875
5994,-60.546875
5995,-60.546875
5996,-60.546875
5997,-58.593750
5998,-60.546875
5999,-58.593750
6000,-62.500000
6001,-60.546875
6002,-60.546875
6003,-58.593750
6004,-62.500000
6005,-62.500000
6006,-60.546875
6007,-62.500000
6008,-62.500000
6009,-62.500000
6010,-60.546875
6011,-62.500000
6012,-62.500000
6013,-56.640625
6014,-62.500000
6015,-60.546875
6016,-60.546875
6017,-62.500000
6018,-62.500000
6019,-60.546875
6020,-64.453125
6021,-60.546875
6022,-60.546875
6023,-60.546875
6024,-64.453125
6025,-62.500000
6026,-60.546875
6027,-64.453125
6028,-56.640625
6029,-60.546875
6030,-62.500000
6031,-58.593750
6032,-62.500000
6033,-60.546875
6034,-60.546875
6035,-60.546875
6036,-60.546875
6037,-62.500000
6038,-60.546875
6039,-60.546875
6040,-60.546875
6041,-60.546875
6042,-62.500000
6043,-60.546875
6044,-60.546875
6045,-60.546875
6046,-62.500000
6047,-62.500000
6048,-56.640625
6049,-62.500000
6050,-64.453125
6051,-60.546875
6052,-60.546875
6053,-62.500000
6054,-60.546875
6055,-60.546875
6056,-60.546875
6057,-64.453125
6058,-60.546875
6059,-62.500000
6060,-60.546875
6061,-62.500000
6062,-62.500000
6063,-56.640625
6064,-62.500000
6065,-64.453125
6066,-60.546875
6067,-60.546875
6068,-62.500000
6069,-56.640625
6070,-62.500000
6071,-60.546875
6072,-60.546875
6073,-60.546875
6074,-60.546875
6075,-62.500000
6076,-60.546875
6077,-60.546875
6078,-60.546875
6079,-64.453125
6080,-64.453125
6081,-60.546875
6082,-60.546875
6083,-60.546875
6084,-50.781250
6085,-62.500000
6086,-56.640625
6087,-60.546875
6088,-60.546875
6089,-56.640625
6090,-60.546875
6091,-60.546875
6092,-52.734375
6093,-58.593750
6094,-62.500000
6095,-60.546875
6096,-60.546875
6097,-56.640625
6098,-60.546875
6099,-62.500000
6100,-62.500000
6101,-60.546875
6102,-60.546875
6103,-62.500000
6104,-60.546875
6105,-60.546875
6106,-62.500000
6107,-60.546875
6108,-62.500000
6109,-62.500000
6110,-64.453125
6111,-64.453125
6112,-64.453125
6113,-64.453125
6114,-62.500000
6115,-64.453125
6116,-64.453125
6117,-64.453125
6118,-70.312500
6119,-66.406250
6120,-70.312500
6121,-66.406250
6122,-70.312500
6123,-70.312500
6124,-70.312500
6125,-72.265625
6126,-72.265625
6127,-72.265625
6128,-72.265625
6129,-70.312500
6130,-72.265625
6131,-72.265625
6132,-70.312500
6133,-72.265625
6134,-72.265625
6135,-74.218750
6136,-74.218750
6137,-72.265625
6138,-76.171875
6139,-76.171875
6140,-85.937500
6141,-76.171875
6142,-76.171875
6143,-76.171875
6144,-76.171875
6145,-80.078125
6146,-76.171875
6147,-78.125000
6148,-80.078125
6149,-82.031250
6150,-78.125000
6151,-78.125000
6152,-80.078125
6153,-78.125000
6154,-78.125000
6155,-80.078125
6156,-78.125000
6157,-80.078125
6158,-80.078125
6159,-80.078125
6160,-82.031250
6161,-80.078125
6162,-78.125000
6163,-82.031250
6164,-82.031250
6165,-82.031250
6166,-80.078125
6167,-82.031250
6168,-83.984375
6169,-82.031250
6170,-82.031250
6171,-82.031250
6172,-82.031250
6173,-83.984375
6174,-82.031250
6175,-82.031250
6176,-83.984375
6177,-83.984375
6178,-82.031250
6179,-82.031250
6180,-83.984375
6181,-80.078125
6182,-83.984375
6183,-83.984375
6184,-80.078125
6185,-83.984375
6186,-82.031250
6187,-83.984375
6188,-80.078125
6189,-82.031250
6190,-83.984375
6191,-83.984375
6192,-82.031250
6193,-80.078125
6194,-82.031250
6195,-82.031250
6196,-82.031250
6197,-83.984375
6198,-82.031250
6199,-87.890625
6200,-82.031250
6201,-83.984375
6202,-83.984375
6203,-82.031250
6204,-85.937500
6205,-83.984375
6206,-85.937500
6207,-83.984375
6208,-85.937500
6209,-87.890625
6210,-87.890625
6211,-83.984375
6212,-87.890625
6213,-85.937500
6214,-85.937500
6215,-87.890625
6216,-87.890625
6217,-87.890625
6218,-85.937500
6219,-87.890625
6220,-85.937500
6221,-87.890625
6222,-87.890625
6223,-85.937500
6224,-89.843750
6225,-87.890625
6226,-87.890625
6227,-87.890625
6228,-87.890625
6229,-91.796875
6230,-85.937500
6231,-87.890625
6232,-87.890625
6233,-87.890625
6234,-91.796875
6235,-87.890625
6236,-78.125000
6237,-87.890625
6238,-91.796875
6239,-91.796875
6240,-91.796875
6241,-91.796875
6242,-87.890625
6243,-87.890625
6244,-87.890625
6245,-87.890625
6246,-87.890625
6247,-87.890625
6248,-91.796875
6249,-87.890625
6250,-87.890625
6251,-87.890625
6252,-87.890625
6253,-91.796875
6254,-85.937500
6255,-91.796875
6256,-87.890625
6257,-87.890625
6258,-89.843750
6259,-89.843750
6260,-87.890625
6261,-87.890625
6262,-87.890625
6263,-89.843750
6264,-87.890625
6265,-91.796875
6266,-87.890625
6267,-87.890625
6268,-87.890625
6269,-87.890625
6270,-91.796875
6271,-87.890625
6272,-85.937500
6273,-87.890625
6274,-87.890625
6275,-72.265625
6276,-87.890625
6277,-87.890625
6278,-91.796875
6279,-85.937500
6280,-87.890625
6281,-85.937500
6282,-87.890625
6283,-87.890625
6284,-85.937500
6285,-87.890625
6286,-87.890625
6287,-83.984375
6288,-87.890625
6289,-85.937500
6290,-87.890625
6291,-89.843750
6292,-85.937500
6293,-91.796875
6294,-87.890625
6295,-85.937500
6296,-87.890625
6297,-82.031250
6298,-87.890625
6299,-85.937500
6300,-87.890625
6301,-87.890625
6302,-87.890625
6303,-87.890625
6304,-85.937500
6305,-87.890625
6306,-87.890625
6307,-85.937500
6308,-91.796875
6309,-85.937500
6310,-87.890625
6311,-83.984375
6312,-87.890625
6313,-85.937500
6314,-85.937500
6315,-87.890625
6316,-85.937500
6317,-89.843750
6318,-83.984375
6319,-87.890625
6320,-87.890625
6321,-87.890625
6322,-87.890625
6323,-85.937500
6324,-87.890625
6325,-87.890625
6326,-87.890625
6327,-87.890625
6328,-83.984375
6329,-87.890625
6330,-85.937500
6331,-87.890625
6332,-87.890625
6333,-87.890625
6334,-85.937500
6335,-82.031250
6336,-87.890625
6337,-87.890625
6338,-87.890625
6339,-91.796875
6340,-87.890625
6341,-85.937500
6342,-85.937500
6343,-87.890625
6344,-87.890625
6345,-89.843750
6346,-85.937500
6347,-87.890625
6348,-76.171875
6349,-87.890625
6350,-85.937500
6351,-85.937500
6352,-87.890625
6353,-85.937500
6354,-85.937500
6355,-87.890625
6356,-87.890625
6357,-87.890625
6358,-83.984375
6359,-87.890625
6360,-85.937500
6361,-89.843750
6362,-87.890625
6363,-85.937500
6364,-85.937500
6365,-87.890625
6366,-87.890625
6367,-87.890625
6368,-85.937500
6369,-87.890625
6370,-83.984375
6371,-87.890625
6372,-95.703125
6373,-85.937500
6374,-87.890625
6375,-87.890625
6376,-85.937500
6377,-87.890625
6378,-85.937500
6379,-87.890625
6380,-91.796875
6381,-85.937500
6382,-87.890625
6383,-87.890625
6384,-95.703125
6385,-85.937500
6386,-85.937500
6387,-87.890625
6388,-85.937500
6389,-87.890625
6390,-85.937500
6391,-87.890625
6392,-87.890625
6393,-85.937500
6394,-87.890625
6395,-87.890625
6396,-87.890625
6397,-95.703125
6398,-91.796875
6399,-87.890625
6400,-87.890625
6401,-85.937500
6402,-85.937500
6403,-87.890625
6404,-87.890625
6405,-87.890625
6406,-91.796875
6407,-89.843750
6408,-87.890625
6409,-87.890625
6410,-87.890625
6411,-87.890625
6412,-85.937500
6413,-87.890625
6414,-87.890625
6415,-85.937500
6416,-87.890625
6417,-87.890625
6418,-87.890625
6419,-87.890625
6420,-87.890625
6421,-87.890625
6422,-85.937500
6423,-87.890625
6424,-87.890625
6425,-87.890625
6426,-87.890625
6427,-85.937500
6428,-87.890625
6429,-85.937500
6430,-87.890625
6431,-87.890625
6432,-85.937500
6433,-85.937500
6434,-87.890625
6435,-85.937500
6436,-83.984375
6437,-83.984375
6438,-91.796875
6439,-87.890625
6440,-87.890625
6441,-87.890625
6442,-87.890625
6443,-87.890625
6444,-87.890625
6445,-83.984375
6446,-87.890625
6447,-87.890625
6448,-87.890625
6449,-87.890625
6450,-87.890625
6451,-87.890625
6452,-87.890625
6453,-85.937500
6454,-85.937500
6455,-87.890625
6456,-87.890625
6457,-87.890625
6458,-87.890625
6459,-87.890625
6460,-87.890625
6461,-85.937500
6462,-87.890625
6463,-89.843750
6464,-85.937500
6465,-91.796875
6466,-85.937500
6467,-87.890625
6468,-87.890625
6469,-85.937500
6470,-87.890625
6471,-83.984375
6472,-87.890625
6473,-87.890625
6474,-87.890625
6475,-89.843750
6476,-87.890625
6477,-87.890625
6478,-87.890625
6479,-85.937500
6480,-91.796875
6481,-85.937500
6482,-85.937500
6483,-87.890625
6484,-87.890625
6485,-87.890625
6486,-85.937500
6487,-87.890625
6488,-87.890625
6489,-85.937500
6490,-87.890625
6491,-85.937500
6492,-87.890625
6493,-85.937500
6494,-87.890625
6495,-87.890625
6496,-82.031250
6497,-87.890625
6498,-85.937500
6499,-87.890625
6500,-89.843750
6501,-82.031250
6502,-85.937500
6503,-85.937500
6504,-87.890625
6505,-87.890625
6506,-80.078125
6507,-87.890625
6508,-87.890625
6509,-87.890625
6510,-87.890625
6511,-85.937500
6512,-87.890625
6513,-80.078125
6514,-87.890625
6515,-87.890625
6516,-82.031250
6517,-87.890625
6518,-85.937500
6519,-80.078125
6520,-85.937500
6521,-85.937500
6522,-85.937500
6523,-83.984375
6524,-83.984375
6525,-83.984375
6526,-83.984375
6527,-83.984375
6528,-82.031250
6529,-85.937500
6530,-82.031250
6531,-82.031250
6532,-85.937500
6533,-83.984375
6534,-82.031250
6535,-82.031250
6536,-82.031250
6537,-83.984375
6538,-82.031250
6539,-82.031250
6540,-82.031250
6541,-82.031250
6542,-83.984375
6543,-80.078125
6544,-82.031250
6545,-80.078125
6546,-80.078125
6547,-80.078125
6548,-80.078125
6549,-80.078125
6550,-80.078125
6551,-78.125000
6552,-80.078125
6553,-76.171875
6554,-72.265625
6555,-72.265625
6556,-76.171875
6557,-74.218750
6558,-80.078125
6559,-72.265625
6560,-70.312500
6561,-70.312500
6562,-72.265625
6563,-68.359375
6564,-70.312500
6565,-68.359375
6566,-68.359375
6567,-66.406250
6568,-68.359375
6569,-64.453125
6570,-66.406250
6571,-64.453125
6572,-64.453125
6573,-68.359375
6574,-64.453125
6575,-64.453125
6576,-64.453125
6577,-62.500000
6578,-64.453125
6579,-60.546875
6580,-62.500000
6581,-62.500000
6582,-62.500000
6583,-64.453125
6584,-60.546875
6585,-66.406250
6586,-60.546875
6587,-60.546875
6588,-60.546875
6589,-60.546875
6590,-64.453125
6591,-60.546875
6592,-58.593750
6593,-62.500000
6594,-62.500000
6595,-60.546875
6596,-60.546875
6597,-60.546875
6598,-64.453125
6599,-62.500000
6600,-62.500000
6601,-60.546875
6602,-60.546875
6603,-60.546875
6604,-60.546875
6605,-62.500000
6606,-60.546875
6607,-60.546875
6608,-64.453125
6609,-60.546875
6610,-64.453125
6611,-64.453125
6612,-60.546875
6613,-62.500000
6614,-64.453125
6615,-64.453125
6616,-60.546875
6617,-60.546875
6618,-60.546875
6619,-60.546875
6620,-62.500000
6621,-62.500000
6622,-60.546875
6623,-62.500000
6624,-60.546875
6625,-60.546875
6626,-60.546875
6627,-60.546875
6628,-62.500000
6629,-58.593750
6630,-62.500000
6631,-60.546875
6632,-60.546875
6633,-62.500000
6634,-62.500000
6635,-60.546875
6636,-60.546875
6637,-62.500000
6638,-60.546875
6639,-58.593750
6640,-62.500000
6641,-60.546875
6642,-60.546875
6643,-60.546875
6644,-60.546875
6645,-60.546875
6646,-60.546875
6647,-60.546875
6648,-62.500000
6649,-60.546875
6650,-62.500000
6651,-60.546875
6652,-60.546875
6653,-60.546875
6654,-62.500000
6655,-58.593750
6656,-60.546875
6657,-60.546875
6658,-60.546875
6659,-60.546875
6660,-60.546875
6661,-60.546875
6662,-62.500000
6663,-66.406250
6664,-56.640625
6665,-64.453125
6666,-60.546875
6667,-62.500000
6668,-60.546875
6669,-60.546875
6670,-60.546875
6671,-56.640625
6672,-56.640625
6673,-60.546875
6674,-60.546875
6675,-60.546875
6676,-62.500000
6677,-62.500000
6678,-60.546875
6679,-60.546875
6680,-56.640625
6681,-60.546875
6682,-60.546875
6683,-60.546875
6684,-60.546875
6685,-56.640625
6686,-60.546875
6687,-62.500000
6688,-58.593750
6689,-64.453125
6690,-60.546875
6691,-62.500000
6692,-60.546875
6693,-60.546875
6694,-60.546875
6695,-60.546875
6696,-60.546875
6697,-60.546875
6698,-56.640625
6699,-62.500000
6700,-60.546875
6701,-60.546875
6702,-60.546875
6703,-56.640625
6704,-60.546875
6705,-60.546875
6706,-62.500000
6707,-58.593750
6708,-60.546875
6709,-62.500000
6710,-60.546875
6711,-60.546875
6712,-56.640625
6713,-60.546875
6714,-60.546875
6715,-60.546875
6716,-60.546875
6717,-62.500000
6718,-60.546875
6719,-62.500000
6720,-60.546875
6721,-62.500000
6722,-60.546875
6723,-60.546875
6724,-60.546875
6725,-60.546875
6726,-60.546875
6727,-60.546875
6728,-60.546875
6729,-56.640625
6730,-56.640625
6731,-60.546875
6732,-56.640625
6733,-60.546875
6734,-60.546875
6735,-56.640625
6736,-60.546875
6737,-60.546875
6738,-58.593750
6739,-60.546875
6740,-58.593750
6741,-60.546875
6742,-56.640625
6743,-62.500000
6744,-60.546875
6745,-56.640625
6746,-60.546875
6747,-58.593750
6748,-60.546875
6749,-56.640625
6750,-58.593750
6751,-58.593750
6752,-58.593750
6753,-60.546875
6754,-56.640625
6755,-56.640625
6756,-56.640625
6757,-56.640625
6758,-60.546875
6759,-56.640625
6760,-56.640625
6761,-56.640625
6762,-56.640625
6763,-56.640625
6764,-54.687500
6765,-58.593750
6766,-56.640625
6767,-56.640625
6768,-58.593750
6769,-56.640625
6770,-60.546875
6771,-54.687500
6772,-62.500000
6773,-56.640625
6774,-56.640625
6775,-56.640625
6776,-56.640625
6777,-58.593750
6778,-48.828125
6779,-54.687500
6780,-56.640625
6781,-60.546875
6782,-56.640625
6783,-56.640625
6784,-56.640625
6785,-56.640625
6786,-56.640625
6787,-56.640625
6788,-56.640625
6789,-56.640625
6790,-60.546875
6791,-58.593750
6792,-56.640625
6793,-56.640625
6794,-54.687500
6795,-58.593750
6796,-54.687500
6797,-60.546875
6798,-56.640625
6799,-60.546875
6800,-58.593750
6801,-60.546875
6802,-60.546875
6803,-56.640625
6804,-60.546875
6805,-56.640625
6806,-60.546875
6807,-62.500000
6808,-56.640625
6809,-62.500000
6810,-60.546875
6811,-60.546875
6812,-64.453125
6813,-62.500000
6814,-64.453125
6815,-60.546875
6816,-66.406250
6817,-64.453125
6818,-66.406250
6819,-66.406250
6820,-66.406250
6821,-68.359375
6822,-66.406250
6823,-70.312500
6824,-72.265625
6825,-70.312500
6826,-76.171875
6827,-72.265625
6828,-76.171875
6829,-72.265625
6830,-72.265625
6831,-76.171875
6832,-72.265625
6833,-76.171875
6834,-76.171875
6835,-76.171875
6836,-78.125000
6837,-74.218750
6838,-78.125000
6839,-76.171875
6840,-76.171875
6841,-78.125000
6842,-78.125000
6843,-78.125000
6844,-82.031250
6845,-80.078125
6846,-78.125000
6847,-80.078125
6848,-80.078125
6849,-83.984375
6850,-80.078125
6851,-83.984375
6852,-82.031250
6853,-82.031250
6854,-82.031250
6855,-82.031250
6856,-80.078125
6857,-82.031250
6858,-82.031250
6859,-95.703125
6860,-82.031250
6861,-83.984375
6862,-83.984375
6863,-83.984375
6864,-85.937500
6865,-83.984375
6866,-85.937500
6867,-87.890625
6868,-80.078125
6869,-85.937500
6870,-83.984375
6871,-85.937500
6872,-85.937500
6873,-83.984375
6874,-87.890625
6875,-83.984375
6876,-85.937500
6877,-85.937500
6878,-83.984375
6879,-87.890625
6880,-83.984375
6881,-85.937500
6882,-83.984375
6883,-87.890625
6884,-83.984375
6885,-85.937500
6886,-87.890625
6887,-85.937500
6888,-87.890625
6889,-87.890625
6890,-85.937500
6891,-87.890625
6892,-87.890625
6893,-87.890625
6894,-80.078125
6895,-87.890625
6896,-87.890625
6897,-87.890625
6898,-87.890625
6899,-87.890625
6900,-87.890625
6901,-87.890625
6902,-87.890625
6903,-87.890625
6904,-85.937500
6905,-87.890625
6906,-89.843750
6907,-85.937500
6908,-87.890625
6909,-87.890625
6910,-87.890625
6911,-87.890625
6912,-89.843750
6913,-87.890625
6914,-87.890625
6915,-87.890625
6916,-87.890625
6917,-87.890625
6918,-87.890625
6919,-87.890625
6920,-87.890625
6921,-85.937500
6922,-87.890625
6923,-87.890625
6924,-87.890625
6925,-89.843750
6926,-87.890625
6927,-87.890625
6928,-87.890625
6929,-87.890625
6930,-91.796875
6931,-87.890625
6932,-87.890625
6933,-87.890625
6934,-87.890625
6935,-87.890625
6936,-87.890625
6937,-87.890625
6938,-85.937500
6939,-87.890625
6940,-87.890625
6941,-85.937500
6942,-87.890625
6943,-85.937500
6944,-87.890625
6945,-87.890625
6946,-87.890625
6947,-87.890625
6948,-85.937500
6949,-87.890625
6950,-87.890625
6951,-87.890625
6952,-85.937500
6953,-85.937500
6954,-91.796875
6955,-103.515625
6956,-87.890625
6957,-87.890625
6958,-87.890625
6959,-87.890625
6960,-85.937500
6961,-89.843750
6962,-87.890625
6963,-85.937500
6964,-87.890625
6965,-85.937500
6966,-87.890625
6967,-83.984375
6968,-87.890625
6969,-85.937500
6970,-89.843750
6971,-87.890625
6972,-87.890625
6973,-87.890625
6974,-87.890625
6975,-85.937500
6976,-87.890625
6977,-89.843750
6978,-87.890625
6979,-87.890625
6980,-85.937500
6981,-83.984375
6982,-85.937500
6983,-85.937500
6984,-87.890625
6985,-85.937500
6986,-89.843750
6987,-87.890625
6988,-87.890625
6989,-87.890625
6990,-99.609375
6991,-87.890625
6992,-85.937500
6993,-87.890625
6994,-87.890625
6995,-85.937500
6996,-87.890625
6997,-85.937500
6998,-91.796875
6999,-87.890625
7000,-89.843750
7001,-87.890625
7002,-85.937500
7003,-80.078125
7004,-85.937500
7005,-89.843750
7006,-87.890625
7007,-87.890625
7008,-91.796875
7009,-85.937500
7010,-91.796875
7011,-87.890625
7012,-85.937500
7013,-87.890625
7014,-87.890625
7015,-87.890625
7016,-87.890625
7017,-87.890625
7018,-87.890625
7019,-87.890625
7020,-87.890625
7021,-87.890625
7022,-87.890625
7023,-87.890625
7024,-87.890625
7025,-91.796875
7026,-85.937500
7027,-85.937500
7028,-91.796875
7029,-85.937500
7030,-87.890625
7031,-87.890625
7032,-85.937500
7033,-93.750000
7034,-85.937500
7035,-87.890625
7036,-87.890625
7037,-87.890625
7038,-91.796875
7039,-87.890625
7040,-91.796875
7041,-87.890625
7042,-87.890625
7043,-87.890625
7044,-87.890625
7045,-87.890625
7046,-87.890625
7047,-87.890625
7048,-87.890625
7049,-87.890625
7050,-89.843750
7051,-91.796875
7052,-87.890625
7053,-87.890625
7054,-85.937500
7055,-87.890625
7056,-87.890625
7057,-91.796875
7058,-87.890625
7059,-87.890625
7060,-87.890625
7061,-87.890625
7062,-87.890625
7063,-87.890625
7064,-87.890625
7065,-91.796875
7066,-89.843750
7067,-87.890625
7068,-87.890625
7069,-87.890625
7070,-87.890625
7071,-87.890625
7072,-83.984375
7073,-89.843750
7074,-89.843750
7075,-85.937500
7076,-91.796875
7077,-87.890625
7078,-87.890625
7079,-89.843750
7080,-85.937500
7081,-95.703125
7082,-87.890625
7083,-87.890625
7084,-87.890625
7085,-85.937500
7086,-89.843750
7087,-87.890625
7088,-87.890625
7089,-91.796875
7090,-87.890625
7091,-85.937500
7092,-87.890625
7093,-87.890625
7094,-87.890625
7095,-87.890625
7096,-87.890625
7097,-91.796875
7098,-87.890625
7099,-83.984375
7100,-87.890625
7101,-87.890625
7102,-87.890625
7103,-87.890625
7104,-91.796875
7105,-87.890625
7106,-87.890625
7107,-87.890625
7108,-91.796875
7109,-91.796875
7110,-87.890625
7111,-91.796875
7112,-78.125000
7113,-87.890625
7114,-91.796875
7115,-87.890625
7116,-91.796875
7117,-87.890625
7118,-87.890625
7119,-87.890625
7120,-85.937500
7121,-89.843750
7122,-87.890625
7123,-87.890625
7124,-91.796875
7125,-87.890625
7126,-91.796875
7127,-87.890625
7128,-87.890625
7129,-89.843750
7130,-87.890625
7131,-87.890625
7132,-87.890625
7133,-87.890625
7134,-89.843750
7135,-85.937500
7136,-87.890625
7137,-87.890625
7138,-87.890625
7139,-91.796875
7140,-87.890625
7141,-87.890625
7142,-87.890625
7143,-87.890625
7144,-87.890625
7145,-87.890625
7146,-87.890625
7147,-87.890625
7148,-87.890625
7149,-87.890625
7150,-87.890625
7151,-87.890625
7152,-87.890625
7153,-87.890625
7154,-87.890625
7155,-87.890625
7156,-89.843750
7157,-87.890625
7158,-91.796875
7159,-87.890625
7160,-72.265625
7161,-87.890625
7162,-87.890625
7163,-87.890625
7164,-85.937500
7165,-91.796875
7166,-87.890625
7167,-87.890625
7168,-99.609375
7169,-87.890625
7170,-91.796875
7171,-87.890625
7172,-87.890625
7173,-85.937500
7174,-87.890625
7175,-91.796875
7176,-87.890625
7177,-85.937500
7178,-87.890625
7179,-87.890625
7180,-87.890625
7181,-87.890625
7182,-87.890625
7183,-87.890625
7184,-87.890625
7185,-87.890625
7186,-87.890625
7187,-83.984375
7188,-87.890625
7189,-87.890625
7190,-91.796875
7191,-83.984375
7192,-87.890625
7193,-87.890625
7194,-83.984375
7195,-87.890625
7196,-87.890625
7197,-87.890625
7198,-87.890625
7199,-87.890625
7200,-91.796875
7201,-85.937500
7202,-87.890625
7203,-87.890625
7204,-85.937500
7205,-87.890625
7206,-85.937500
7207,-87.890625
7208,-87.890625
7209,-87.890625
7210,-72.265625
7211,-85.937500
7212,-91.796875
7213,-87.890625
7214,-87.890625
7215,-87.890625
7216,-87.890625
7217,-87.890625
7218,-85.937500
7219,-91.796875
7220,-87.890625
7221,-85.937500
7222,-87.890625
7223,-83.984375
7224,-87.890625
7225,-87.890625
7226,-87.890625
7227,-87.890625
7228,-87.890625
7229,-89.843750
7230,-87.890625
7231,-87.890625
7232,-87.890625
7233,-85.937500
7234,-87.890625
7235,-87.890625
7236,-87.890625
7237,-87.890625
7238,-87.890625
7239,-85.937500
7240,-87.890625
7241,-87.890625
7242,-87.890625
7243,-91.796875
7244,-87.890625
7245,-83.984375
7246,-87.890625
7247,-87.890625
7248,-85.937500
7249,-87.890625
7250,-85.937500
7251,-87.890625
7252,-87.890625
7253,-85.937500
7254,-85.937500
7255,-83.984375
7256,-91.796875
7257,-83.984375
7258,-85.937500
7259,-85.937500
7260,-85.937500
7261,-85.937500
7262,-82.031250
7263,-87.890625
7264,-85.937500
7265,-83.984375
7266,-85.937500
7267,-82.031250
7268,-87.890625
7269,-82.031250
7270,-85.937500
7271,-83.984375
7272,-83.984375
7273,-85.937500
7274,-82.031250
7275,-85.937500
7276,-83.984375
7277,-82.031250
7278,-85.937500
7279,-82.031250
7280,-83.984375
7281,-83.984375
7282,-80.078125
7283,-82.031250
7284,-80.078125
7285,-80.078125
7286,-80.078125
7287,-78.125000
7288,-80.078125
7289,-80.078125
7290,-80.078125
7291,-78.125000
7292,-80.078125
7293,-80.078125
7294,-76.171875
7295,-76.171875
7296,-72.265625
7297,-76.171875
7298,-76.171875
7299,-72.265625
7300,-76.171875
7301,-72.265625
7302,-72.265625
7303,-72.265625
7304,-70.312500
7305,-72.265625
7306,-70.312500
7307,-70.312500
7308,-72.265625
7309,-68.359375
7310,-70.312500
7311,-66.406250
7312,-68.359375
7313,-68.359375
7314,-66.406250
7315,-68.359375
7316,-70.312500
7317,-64.453125
7318,-66.406250
7319,-66.406250
7320,-64.453125
7321,-60.546875
7322,-68.359375
7323,-64.453125
7324,-64.453125
7325,-64.453125
7326,-66.406250
7327,-64.453125
7328,-64.453125
7329,-64.453125
7330,-62.500000
7331,-66.406250
7332,-64.453125
7333,-64.453125
7334,-66.406250
7335,-60.546875
7336,-64.453125
7337,-64.453125
7338,-64.453125
7339,-64.453125
7340,-62.500000
7341,-64.453125
7342,-64.453125
7343,-64.453125
7344,-64.453125
7345,-64.453125
7346,-64.453125
7347,-64.453125
7348,-64.453125
7349,-66.406250
7350,-64.453125
7351,-64.453125
7352,-64.453125
7353,-66.406250
7354,-64.453125
7355,-64.453125
7356,-66.406250
7357,-64.453125
7358,-64.453125
7359,-66.406250
7360,-64.453125
7361,-64.453125
7362,-64.453125
7363,-66.406250
7364,-64.453125
7365,-66.406250
7366,-66.406250
7367,-64.453125
7368,-64.453125
7369,-76.171875
7370,-64.453125
7371,-64.453125
7372,-64.453125
7373,-64.453125
7374,-64.453125
7375,-64.453125
7376,-64.453125
7377,-64.453125
7378,-64.453125
7379,-64.453125
7380,-64.453125
7381,-66.406250
7382,-62.500000
7383,-66.406250
7384,-64.453125
7385,-64.453125
7386,-64.453125
7387,-64.453125
7388,-66.406250
7389,-62.500000
7390,-62.500000
7391,-64.453125
7392,-62.500000
7393,-64.453125
7394,-64.453125
7395,-64.453125
7396,-64.453125
7397,-64.453125
7398,-64.453125
7399,-62.500000
7400,-62.500000
7401,-64.453125
7402,-64.453125
7403,-64.453125
7404,-62.500000
7405,-64.453125
7406,-64.453125
7407,-64.453125
7408,-64.453125
7409,-62.500000
7410,-64.453125
7411,-64.453125
7412,-64.453125
7413,-66.406250
7414,-64.453125
7415,-66.406250
7416,-62.500000
7417,-64.453125
7418,-66.406250
7419,-64.453125
7420,-66.406250
7421,-64.453125
7422,-64.453125
7423,-64.453125
7424,-64.453125
7425,-68.359375
7426,-64.453125
7427,-64.453125
7428,-66.406250
7429,-64.453125
7430,-83.984375
7431,-64.453125
7432,-64.453125
7433,-64.453125
7434,-62.500000
7435,-64.453125
7436,-64.453125
7437,-64.453125
7438,-64.453125
7439,-62.500000
7440,-62.500000
7441,-64.453125
7442,-64.453125
7443,-64.453125
7444,-64.453125
7445,-66.406250
7446,-64.453125
7447,-64.453125
7448,-64.453125
7449,-62.500000
7450,-64.453125
7451,-64.453125
7452,-64.453125
7453,-64.453125
7454,-64.453125
7455,-64.453125
7456,-64.453125
7457,-66.406250
7458,-64.453125
7459,-66.406250
7460,-66.406250
7461,-64.453125
7462,-66.406250
7463,-64.453125
7464,-66.406250
7465,-60.546875
7466,-64.453125
7467,-70.312500
7468,-64.453125
7469,-66.406250
7470,-68.359375
7471,-66.406250
7472,-68.359375
7473,-68.359375
7474,-72.265625
7475,-70.312500
7476,-70.312500
7477,-72.265625
7478,-72.265625
7479,-72.265625
7480,-76.171875
7481,-72.265625
7482,-76.171875
7483,-76.171875
7484,-72.265625
7485,-76.171875
7486,-74.218750
7487,-80.078125
7488,-78.125000
7489,-78.125000
7490,-78.125000
7491,-76.171875
7492,-80.078125
7493,-78.125000
7494,-82.031250
7495,-80.078125
7496,-82.031250
7497,-82.031250
7498,-80.078125
7499,-82.031250
7500,-80.078125
7501,-82.031250
7502,-83.984375
7503,-82.031250
7504,-85.937500
7505,-82.031250
7506,-83.984375
7507,-83.984375
7508,-82.031250
7509,-83.984375
7510,-83.984375
7511,-87.890625
7512,-87.890625
7513,-87.890625
7514,-87.890625
7515,-82.031250
7516,-87.890625
7517,-87.890625
7518,-87.890625
7519,-87.890625
7520,-87.890625
7521,-87.890625
7522,-87.890625
7523,-85.937500
7524,-87.890625
7525,-87.890625
7526,-87.890625
7527,-91.796875
7528,-87.890625
7529,-87.890625
7530,-85.937500
7531,-87.890625
7532,-87.890625
7533,-85.937500
7534,-87.890625
7535,-87.890625
7536,-87.890625
7537,-87.890625
7538,-85.937500
7539,-87.890625
7540,-85.937500
7541,-87.890625
7542,-85.937500
7543,-87.890625
7544,-87.890625
7545,-85.937500
7546,-91.796875
7547,-87.890625
7548,-91.796875
7549,-87.890625
7550,-87.890625
7551,-87.890625
7552,-85.937500
7553,-93.750000
7554,-87.890625
7555,-87.890625
7556,-87.890625
7557,-87.890625
7558,-87.890625
7559,-87.890625
7560,-87.890625
7561,-85.937500
7562,-85.937500
7563,-87.890625
7564,-87.890625
7565,-87.890625
7566,-85.937500
7567,-89.843750
7568,-82.031250
7569,-87.890625
7570,-87.890625
7571,-85.937500
7572,-91.796875
7573,-85.937500
7574,-87.890625
7575,-85.937500
7576,-85.937500
7577,-85.937500
7578,-83.984375
7579,-87.890625
7580,-85.937500
7581,-85.937500
7582,-87.890625
7583,-82.031250
7584,-87.890625
7585,-85.937500
7586,-85.937500
7587,-76.171875
7588,-83.984375
7589,-85.937500
7590,-83.984375
7591,-85.937500
7592,-87.890625
7593,-83.984375
7594,-83.984375
7595,-85.937500
7596,-83.984375
7597,-85.937500
7598,-83.984375
7599,-85.937500
7600,-78.125000
7601,-82.031250
7602,-85.937500
7603,-82.031250
7604,-85.937500
7605,-85.937500
7606,-82.031250
7607,-87.890625
7608,-82.031250
7609,-85.937500
7610,-85.937500
7611,-83.984375
7612,-83.984375
7613,-82.031250
7614,-87.890625
7615,-82.031250
7616,-83.984375
7617,-83.984375
7618,-82.031250
7619,-83.984375
7620,-82.031250
7621,-85.937500
7622,-82.031250
7623,-83.984375
7624,-83.984375
7625,-83.984375
7626,-82.031250
7627,-83.984375
7628,-83.984375
7629,-85.937500
7630,-83.984375
7631,-83.984375
7632,-83.984375
7633,-82.031250
7634,-83.984375
7635,-85.937500
7636,-82.031250
7637,-82.031250
7638,-83.984375
7639,-85.937500
7640,-82.031250
7641,-83.984375
7642,-82.031250
7643,-82.031250
7644,-82.031250
7645,-83.984375
7646,-85.937500
7647,-80.078125
7648,-85.937500
7649,-85.937500
7650,-83.984375
7651,-85.937500
7652,-80.078125
7653,-82.031250
7654,-85.937500
7655,-82.031250
7656,-85.937500
7657,-85.937500
7658,-85.937500
7659,-85.937500
7660,-83.984375
7661,-85.937500
7662,-85.937500
7663,-85.937500
7664,-83.984375
7665,-83.984375
7666,-87.890625
7667,-83.984375
7668,-85.937500
7669,-83.984375
7670,-85.937500
7671,-83.984375
7672,-85.937500
7673,-87.890625
7674,-85.937500
7675,-85.937500
7676,-85.937500
7677,-85.937500
7678,-83.984375
7679,-85.937500
7680,-83.984375
7681,-83.984375
7682,-83.984375
7683,-85.937500
7684,-85.937500
7685,-83.984375
7686,-85.937500
7687,-83.984375
7688,-83.984375
7689,-85.937500
7690,-83.984375
7691,-83.984375
7692,-82.031250
7693,-85.937500
7694,-83.984375
7695,-85.937500
7696,-87.890625
7697,-83.984375
7698,-85.937500
7699,-83.984375
7700,-83.984375
7701,-91.796875
7702,-85.937500
7703,-87.890625
7704,-83.984375
7705,-87.890625
7706,-87.890625
7707,-87.890625
7708,-85.937500
7709,-83.984375
7710,-85.937500
7711,-83.984375
7712,-87.890625
7713,-85.937500
7714,-83.984375
7715,-85.937500
7716,-85.937500
7717,-87.890625
7718,-83.984375
7719,-85.937500
7720,-85.937500
7721,-85.937500
7722,-85.937500
7723,-87.890625
7724,-85.937500
7725,-85.937500
7726,-85.937500
7727,-85.937500
7728,-85.937500
7729,-85.937500
7730,-87.890625
7731,-85.937500
7732,-83.984375
7733,-85.937500
7734,-83.984375
7735,-78.125000
7736,-83.984375
7737,-85.937500
7738,-97.656250
7739,-83.984375
7740,-87.890625
7741,-82.031250
7742,-85.937500
7743,-85.937500
7744,-85.937500
7745,-85.937500
7746,-83.984375
7747,-87.890625
7748,-93.750000
7749,-85.937500
7750,-87.890625
7751,-85.937500
7752,-87.890625
7753,-85.937500
7754,-87.890625
7755,-85.937500
7756,-85.937500
7757,-87.890625
7758,-85.937500
7759,-87.890625
7760,-87.890625
7761,-85.937500
7762,-87.890625
7763,-85.937500
7764,-85.937500
7765,-87.890625
7766,-87.890625
7767,-85.937500
7768,-82.031250
7769,-87.890625
7770,-85.937500
7771,-85.937500
7772,-87.890625
7773,-85.937500
7774,-85.937500
7775,-85.937500
7776,-85.937500
7777,-87.890625
7778,-83.984375
7779,-87.890625
7780,-83.984375
7781,-83.984375
7782,-85.937500
7783,-83.984375
7784,-87.890625
7785,-83.984375
7786,-85.937500
7787,-85.937500
7788,-85.937500
7789,-87.890625
7790,-82.031250
7791,-85.937500
7792,-85.937500
7793,-83.984375
7794,-87.890625
7795,-83.984375
7796,-91.796875
7797,-83.984375
7798,-85.937500
7799,-85.937500
7800,-85.937500
7801,-85.937500
7802,-83.984375
7803,-87.890625
7804,-85.937500
7805,-83.984375
7806,-87.890625
7807,-82.031250
7808,-85.937500
7809,-85.937500
7810,-85.937500
7811,-87.890625
7812,-85.937500
7813,-85.937500
7814,-87.890625
7815,-87.890625
7816,-85.937500
7817,-87.890625
7818,-91.796875
7819,-85.937500
7820,-85.937500
7821,-83.984375
7822,-72.265625
7823,-85.937500
7824,-85.937500
7825,-85.937500
7826,-85.937500
7827,-85.937500
7828,-85.937500
7829,-83.984375
7830,-87.890625
7831,-85.937500
7832,-85.937500
7833,-87.890625
7834,-83.984375
7835,-101.562500
7836,-83.984375
7837,-85.937500
7838,-87.890625
7839,-83.984375
7840,-87.890625
7841,-82.031250
7842,-83.984375
7843,-85.937500
7844,-83.984375
7845,-83.984375
7846,-85.937500
7847,-83.984375
7848,-87.890625
7849,-85.937500
7850,-85.937500
7851,-87.890625
7852,-85.937500
7853,-85.937500
7854,-85.937500
7855,-85.937500
7856,-85.937500
7857,-85.937500
7858,-87.890625
7859,-85.937500
7860,-87.890625
7861,-85.937500
7862,-85.937500
7863,-87.890625
7864,-83.984375
7865,-87.890625
7866,-85.937500
7867,-85.937500
7868,-87.890625
7869,-83.984375
7870,-91.796875
7871,-85.937500
7872,-85.937500
7873,-85.937500
7874,-83.984375
7875,-87.890625
7876,-85.937500
7877,-85.937500
7878,-85.937500
7879,-85.937500
7880,-85.937500
7881,-83.984375
7882,-80.078125
7883,-85.937500
7884,-85.937500
7885,-83.984375
7886,-87.890625
7887,-82.031250
7888,-87.890625
7889,-83.984375
7890,-85.937500
7891,-85.937500
7892,-80.078125
7893,-85.937500
7894,-83.984375
7895,-85.937500
7896,-83.984375
7897,-85.937500
7898,-85.937500
7899,-83.984375
7900,-87.890625
7901,-82.031250
7902,-83.984375
7903,-87.890625
7904,-83.984375
7905,-91.796875
7906,-83.984375
7907,-85.937500
7908,-85.937500
7909,-85.937500
7910,-87.890625
7911,-83.984375
7912,-87.890625
7913,-87.890625
7914,-85.937500
7915,-85.937500
7916,-83.984375
7917,-85.937500
7918,-85.937500
7919,-85.937500
7920,-87.890625
7921,-89.843750
7922,-85.937500
7923,-85.937500
7924,-82.031250
7925,-85.937500
7926,-82.031250
7927,-82.031250
7928,-85.937500
7929,-82.031250
7930,-87.890625
7931,-82.031250
7932,-82.031250
7933,-82.031250
7934,-80.078125
7935,-82.031250
7936,-80.078125
7937,-83.984375
7938,-80.078125
7939,-82.031250
7940,-87.890625
7941,-80.078125
7942,-82.031250
7943,-82.031250
7944,-87.890625
7945,-82.031250
7946,-80.078125
7947,-83.984375
7948,-80.078125
7949,-82.031250
7950,-82.031250
7951,-80.078125
7952,-80.078125
7953,-80.078125
7954,-85.937500
7955,-80.078125
7956,-83.984375
7957,-80.078125
7958,-80.078125
7959,-83.984375
7960,-80.078125
7961,-83.984375
7962,-80.078125
7963,-83.984375
7964,-83.984375
7965,-82.031250
7966,-87.890625
7967,-82.031250
7968,-80.078125
7969,-82.031250
7970,-82.031250
7971,-82.031250
7972,-82.031250
7973,-80.078125
7974,-82.031250
7975,-80.078125
7976,-80.078125
7977,-80.078125
7978,-78.125000
7979,-80.078125
7980,-80.078125
7981,-78.125000
7982,-80.078125
7983,-74.218750
7984,-80.078125
7985,-76.171875
7986,-76.171875
7987,-76.171875
7988,-76.171875
7989,-78.125000
7990,-72.265625
7991,-78.125000
7992,-64.453125
7993,-72.265625
7994,-76.171875
7995,-72.265625
7996,-72.265625
7997,-72.265625
7998,-72.265625
7999,-72.265625
8000,-70.312500
8001,-72.265625
8002,-72.265625
8003,-72.265625
8004,-72.265625
8005,-66.406250
8006,-70.312500
8007,-72.265625
8008,-72.265625
8009,-70.312500
8010,-68.359375
8011,-68.359375
8012,-68.359375
8013,-70.312500
8014,-68.359375
8015,-68.359375
8016,-66.406250
8017,-68.359375
8018,-80.078125
8019,-66.406250
8020,-66.406250
8021,-68.359375
8022,-66.406250
8023,-64.453125
8024,-66.406250
8025,-66.406250
8026,-66.406250
8027,-64.453125
8028,-64.453125
8029,-68.359375
8030,-64.453125
8031,-68.359375
8032,-64.453125
8033,-66.406250
8034,-66.406250
8035,-64.453125
8036,-66.406250
8037,-60.546875
8038,-64.453125
8039,-64.453125
8040,-64.453125
8041,-64.453125
8042,-64.453125
8043,-64.453125
8044,-64.453125
8045,-64.453125
8046,-64.453125
8047,-64.453125
8048,-64.453125
8049,-64.453125
8050,-64.453125
8051,-64.453125
8052,-64.453125
8053,-64.453125
8054,-64.453125
8055,-64.453125
8056,-66.406250
8057,-64.453125
8058,-64.453125
8059,-64.453125
8060,-64.453125
8061,-64.453125
8062,-62.500000
8063,-64.453125
8064,-62.500000
8065,-64.453125
8066,-72.265625
8067,-64.453125
8068,-64.453125
8069,-64.453125
8070,-66.406250
8071,-64.453125
8072,-64.453125
8073,-64.453125
8074,-64.453125
8075,-66.406250
8076,-64.453125
8077,-64.453125
8078,-62.500000
8079,-60.546875
8080,-64.453125
8081,-64.453125
8082,-66.406250
8083,-64.453125
8084,-62.500000
8085,-64.453125
8086,-62.500000
8087,-64.453125
8088,-60.546875
8089,-64.453125
8090,-64.453125
8091,-64.453125
8092,-62.500000
8093,-64.453125
8094,-62.500000
8095,-64.453125
8096,-64.453125
8097,-64.453125
8098,-64.453125
8099,-60.546875
8100,-64.453125
8101,-64.453125
8102,-64.453125
8103,-64.453125
8104,-62.500000
8105,-64.453125
8106,-62.500000
8107,-64.453125
8108,-64.453125
8109,-62.500000
8110,-64.453125
8111,-62.500000
8112,-64.453125
8113,-62.500000
8114,-68.359375
8115,-66.406250
8116,-62.500000
8117,-66.406250
8118,-64.453125
8119,-66.406250
8120,-64.453125
8121,-64.453125
8122,-68.359375
8123,-64.453125
8124,-68.359375
8125,-66.406250
8126,-66.406250
8127,-58.593750
8128,-68.359375
8129,-70.312500
8130,-70.312500
8131,-68.359375
8132,-68.359375
8133,-70.312500
8134,-72.265625
8135,-72.265625
8136,-72.265625
8137,-72.265625
8138,-72.265625
8139,-72.265625
8140,-76.171875
8141,-76.171875
8142,-76.171875
8143,-72.265625
8144,-76.171875
8145,-78.125000
8146,-76.171875
8147,-80.078125
8148,-76.171875
8149,-82.031250
8150,-72.265625
8151,-78.125000
8152,-80.078125
8153,-78.125000
8154,-80.078125
8155,-80.078125
8156,-82.031250
8157,-80.078125
8158,-78.125000
8159,-85.937500
8160,-80.078125
8161,-82.031250
8162,-83.984375
8163,-82.031250
8164,-83.984375
8165,-82.031250
8166,-85.937500
8167,-83.984375
8168,-83.984375
8169,-87.890625
8170,-83.984375
8171,-85.937500
8172,-85.937500
8173,-83.984375
8174,-83.984375
8175,-80.078125
8176,-82.031250
8177,-87.890625
8178,-83.984375
8179,-85.937500
8180,-85.937500
8181,-85.937500
8182,-85.937500
8183,-83.984375
8184,-87.890625
8185,-83.984375
8186,-87.890625
8187,-87.890625
8188,-85.937500
8189,-87.890625
8190,-83.984375
8191,-87.890625
8192,-87.890625
8193,-83.984375
8194,-87.890625
8195,-85.937500
8196,-87.890625
8197,-85.937500
8198,-87.890625
8199,-87.890625
8200,-85.937500
8201,-87.890625
8202,-85.937500
8203,-87.890625
8204,-87.890625
8205,-85.937500
8206,-85.937500
8207,-87.890625
8208,-87.890625
8209,-87.890625
8210,-87.890625
8211,-87.890625
8212,-87.890625
8213,-85.937500
8214,-93.750000
8215,-87.890625
8216,-87.890625
8217,-87.890625
8218,-87.890625
8219,-91.796875
8220,-87.890625
8221,-87.890625
8222,-87.890625
8223,-91.796875
8224,-87.890625
8225,-87.890625
8226,-89.843750
8227,-87.890625
8228,-87.890625
8229,-87.890625
8230,-85.937500
8231,-87.890625
8232,-85.937500
8233,-87.890625
8234,-87.890625
8235,-87.890625
8236,-91.796875
8237,-87.890625
8238,-87.890625
8239,-87.890625
8240,-85.937500
8241,-89.843750
8242,-87.890625
8243,-87.890625
8244,-91.796875
8245,-89.843750
8246,-87.890625
8247,-87.890625
8248,-87.890625
8249,-91.796875
8250,-87.890625
8251,-91.796875
8252,-87.890625
8253,-87.890625
8254,-87.890625
8255,-87.890625
8256,-93.750000
8257,-87.890625
8258,-91.796875
8259,-91.796875
8260,-87.890625
8261,-93.750000
8262,-89.843750
8263,-93.750000
8264,-91.796875
8265,-87.890625
8266,-91.796875
8267,-87.890625
8268,-91.796875
8269,-87.890625
8270,-91.796875
8271,-87.890625
8272,-91.796875
8273,-91.796875
8274,-91.796875
8275,-89.843750
8276,-93.750000
8277,-87.890625
8278,-91.796875
8279,-87.890625
8280,-91.796875
8281,-91.796875
8282,-91.796875
8283,-87.890625
8284,-93.750000
8285,-87.890625
8286,-91.796875
8287,-87.890625
8288,-87.890625
8289,-87.890625
8290,-87.890625
8291,-87.890625
8292,-87.890625
8293,-87.890625
8294,-89.843750
8295,-87.890625
8296,-85.937500
8297,-87.890625
8298,-87.890625
8299,-89.843750
8300,-91.796875
8301,-87.890625
8302,-87.890625
8303,-89.843750
8304,-87.890625
8305,-87.890625
8306,-93.750000
8307,-87.890625
8308,-87.890625
8309,-87.890625
8310,-87.890625
8311,-87.890625
8312,-87.890625
8313,-91.796875
8314,-87.890625
8315,-87.890625
8316,-91.796875
8317,-87.890625
8318,-91.796875
8319,-85.937500
8320,-87.890625
8321,-87.890625
8322,-87.890625
8323,-87.890625
8324,-82.031250
8325,-87.890625
8326,-87.890625
8327,-85.937500
8328,-87.890625
8329,-83.984375
8330,-87.890625
8331,-87.890625
8332,-85.937500
8333,-87.890625
8334,-83.984375
8335,-87.890625
8336,-83.984375
8337,-87.890625
8338,-87.890625
8339,-85.937500
8340,-87.890625
8341,-87.890625
8342,-85.937500
8343,-83.984375
8344,-87.890625
8345,-85.937500
8346,-87.890625
8347,-85.937500
8348,-87.890625
8349,-85.937500
8350,-85.937500
8351,-87.890625
8352,-82.031250
8353,-87.890625
8354,-85.937500
8355,-85.937500
8356,-87.890625
8357,-83.984375
8358,-87.890625
8359,-85.937500
8360,-85.937500
8361,-85.937500
8362,-85.937500
8363,-87.890625
8364,-85.937500
8365,-85.937500
8366,-87.890625
8367,-85.937500
8368,-87.890625
8369,-85.937500
8370,-87.890625
8371,-83.984375
8372,-85.937500
8373,-89.843750
8374,-87.890625
8375,-85.937500
8376,-87.890625
8377,-85.937500
8378,-85.937500
8379,-85.937500
8380,-85.937500
8381,-87.890625
8382,-85.937500
8383,-87.890625
8384,-85.937500
8385,-85.937500
8386,-87.890625
8387,-83.984375
8388,-87.890625
8389,-85.937500
8390,-85.937500
8391,-87.890625
8392,-87.890625
8393,-87.890625
8394,-85.937500
8395,-87.890625
8396,-87.890625
8397,-85.937500
8398,-91.796875
8399,-87.890625
8400,-87.890625
8401,-87.890625
8402,-83.984375
8403,-87.890625
8404,-85.937500
8405,-87.890625
8406,-85.937500
8407,-85.937500
8408,-87.890625
8409,-85.937500
8410,-85.937500
8411,-87.890625
8412,-87.890625
8413,-87.890625
8414,-87.890625
8415,-87.890625
8416,-85.937500
8417,-85.937500
8418,-87.890625
8419,-83.984375
8420,-87.890625
8421,-85.937500
8422,-87.890625
8423,-87.890625
8424,-87.890625
8425,-87.890625
8426,-87.890625
8427,-87.890625
8428,-87.890625
8429,-87.890625
8430,-89.843750
8431,-87.890625
8432,-85.937500
8433,-87.890625
8434,-85.937500
8435,-87.890625
8436,-87.890625
8437,-85.937500
8438,-87.890625
8439,-85.937500
8440,-87.890625
8441,-87.890625
8442,-85.937500
8443,-87.890625
8444,-85.937500
8445,-85.937500
8446,-95.703125
8447,-85.937500
8448,-87.890625
8449,-87.890625
8450,-83.984375
8451,-85.937500
8452,-85.937500
8453,-87.890625
8454,-80.078125
8455,-87.890625
8456,-87.890625
8457,-87.890625
8458,-87.890625
8459,-83.984375
8460,-89.843750
8461,-85.937500
8462,-87.890625
8463,-87.890625
8464,-85.937500
8465,-87.890625
8466,-85.937500
8467,-85.937500
8468,-85.937500
8469,-87.890625
8470,-87.890625
8471,-87.890625
8472,-85.937500
8473,-85.937500
8474,-87.890625
8475,-87.890625
8476,-87.890625
8477,-87.890625
8478,-87.890625
8479,-82.031250
8480,-87.890625
8481,-83.984375
8482,-85.937500
8483,-87.890625
8484,-85.937500
8485,-87.890625
8486,-83.984375
8487,-87.890625
8488,-87.890625
8489,-85.937500
8490,-87.890625
8491,-85.937500
8492,-87.890625
8493,-87.890625
8494,-85.937500
8495,-87.890625
8496,-83.984375
8497,-87.890625
8498,-83.984375
8499,-87.890625
8500,-87.890625
8501,-85.937500
8502,-87.890625
8503,-85.937500
8504,-87.890625
8505,-85.937500
8506,-87.890625
8507,-87.890625
8508,-85.937500
8509,-87.890625
8510,-87.890625
8511,-85.937500
8512,-85.937500
8513,-85.937500
8514,-87.890625
8515,-87.890625
8516,-85.937500
8517,-85.937500
8518,-85.937500
8519,-87.890625
8520,-89.843750
8521,-85.937500
8522,-87.890625
8523,-85.937500
8524,-85.937500
8525,-89.843750
8526,-85.937500
8527,-87.890625
8528,-82.031250
8529,-85.937500
8530,-87.890625
8531,-85.937500
8532,-89.843750
8533,-85.937500
8534,-85.937500
8535,-87.890625
8536,-85.937500
8537,-87.890625
8538,-87.890625
8539,-87.890625
8540,-87.890625
8541,-99.609375
8542,-87.890625
8543,-85.937500
8544,-87.890625
8545,-85.937500
8546,-85.937500
8547,-87.890625
8548,-83.984375
8549,-85.937500
8550,-85.937500
8551,-85.937500
8552,-87.890625
8553,-87.890625
8554,-87.890625
8555,-87.890625
8556,-85.937500
8557,-87.890625
8558,-85.937500
8559,-87.890625
8560,-87.890625
8561,-87.890625
8562,-87.890625
8563,-87.890625
8564,-87.890625
8565,-85.937500
8566,-87.890625
8567,-85.937500
8568,-87.890625
8569,-87.890625
8570,-85.937500
8571,-91.796875
8572,-85.937500
8573,-87.890625
8574,-85.937500
8575,-83.984375
8576,-87.890625
8577,-82.031250
8578,-85.937500
8579,-85.937500
8580,-85.937500
8581,-87.890625
8582,-83.984375
8583,-83.984375
8584,-83.984375
8585,-82.031250
8586,-85.937500
8587,-82.031250
8588,-83.984375
8589,-80.078125
8590,-82.031250
8591,-85.937500
8592,-85.937500
8593,-83.984375
8594,-85.937500
8595,-83.984375
8596,-82.031250
8597,-82.031250
8598,-82.031250
8599,-83.984375
8600,-80.078125
8601,-80.078125
8602,-82.031250
8603,-82.031250
8604,-80.078125
8605,-78.125000
8606,-78.125000
8607,-80.078125
8608,-76.171875
8609,-80.078125
8610,-74.218750
8611,-76.171875
8612,-72.265625
8613,-72.265625
8614,-72.265625
8615,-72.265625
8616,-70.312500
8617,-72.265625
8618,-70.312500
8619,-72.265625
8620,-68.359375
8621,-68.359375
8622,-68.359375
8623,-66.406250
8624,-72.265625
8625,-66.406250
8626,-68.359375
8627,-68.359375
8628,-64.453125
8629,-68.359375
8630,-64.453125
8631,-66.406250
8632,-66.406250
8633,-64.453125
8634,-64.453125
8635,-64.453125
8636,-66.406250
8637,-74.218750
8638,-64.453125
8639,-66.406250
8640,-64.453125
8641,-66.406250
8642,-64.453125
8643,-64.453125
8644,-66.406250
8645,-64.453125
8646,-66.406250
8647,-64.453125
8648,-66.406250
8649,-66.406250
8650,-66.406250
8651,-64.453125
8652,-66.406250
8653,-64.453125
8654,-66.406250
8655,-64.453125
8656,-66.406250
8657,-66.406250
8658,-64.453125
8659,-66.406250
8660,-62.500000
8661,-68.359375
8662,-66.406250
8663,-66.406250
8664,-68.359375
8665,-64.453125
8666,-68.359375
8667,-64.453125
8668,-66.406250
8669,-64.453125
8670,-62.500000
8671,-66.406250
8672,-64.453125
8673,-66.406250
8674,-66.406250
8675,-64.453125
8676,-64.453125
8677,-64.453125
8678,-64.453125
8679,-66.406250
8680,-64.453125
8681,-66.406250
8682,-66.406250
8683,-64.453125
8684,-68.359375
8685,-64.453125
8686,-66.406250
8687,-64.453125
8688,-64.453125
8689,-66.406250
8690,-64.453125
8691,-66.406250
8692,-64.453125
8693,-64.453125
8694,-64.453125
8695,-64.453125
8696,-66.406250
8697,-66.406250
8698,-62.500000
8699,-68.359375
8700,-60.546875
8701,-66.406250
8702,-64.453125
8703,-66.406250
8704,-64.453125
8705,-64.453125
8706,-64.453125
8707,-64.453125
8708,-64.453125
8709,-64.453125
8710,-64.453125
8711,-64.453125
8712,-68.359375
8713,-64.453125
8714,-64.453125
8715,-64.453125
8716,-66.406250
8717,-68.359375
8718,-64.453125
8719,-66.406250
8720,-64.453125
8721,-68.359375
8722,-62.500000
8723,-66.406250
8724,-66.406250
8725,-64.453125
8726,-66.406250
8727,-64.453125
8728,-66.406250
8729,-64.453125
8730,-64.453125
8731,-66.406250
8732,-64.453125
8733,-62.500000
8734,-66.406250
8735,-64.453125
8736,-66.406250
8737,-64.453125
8738,-60.546875
8739,-66.406250
8740,-64.453125
8741,-64.453125
8742,-66.406250
8743,-62.500000
8744,-66.406250
8745,-64.453125
8746,-64.453125
8747,-66.406250
8748,-64.453125
8749,-68.359375
8750,-64.453125
8751,-68.359375
8752,-66.406250
8753,-66.406250
8754,-66.406250
8755,-64.453125
8756,-66.406250
8757,-66.406250
8758,-66.406250
8759,-66.406250
8760,-66.406250
8761,-68.359375
8762,-64.453125
8763,-66.406250
8764,-64.453125
8765,-64.453125
8766,-66.406250
8767,-64.453125
8768,-66.406250
8769,-68.359375
8770,-64.453125
8771,-64.453125
8772,-56.640625
8773,-64.453125
8774,-66.406250
8775,-66.406250
8776,-68.359375
8777,-66.406250
8778,-64.453125
8779,-66.406250
8780,-64.453125
8781,-70.312500
8782,-64.453125
8783,-64.453125
8784,-66.406250
8785,-64.453125
8786,-66.406250
8787,-64.453125
8788,-66.406250
8789,-66.406250
8790,-64.453125
8791,-64.453125
8792,-64.453125
8793,-64.453125
8794,-64.453125
8795,-64.453125
8796,-64.453125
8797,-64.453125
8798,-64.453125
8799,-66.406250
8800,-64.453125
8801,-62.500000
8802,-70.312500
8803,-64.453125
8804,-66.406250
8805,-64.453125
8806,-64.453125
8807,-64.453125
8808,-66.406250
8809,-66.406250
8810,-64.453125
8811,-66.406250
8812,-66.406250
8813,-64.453125
8814,-66.406250
8815,-62.500000
8816,-70.312500
8817,-66.406250
8818,-66.406250
8819,-62.500000
8820,-66.406250
8821,-64.453125
8822,-64.453125
8823,-66.406250
8824,-64.453125
8825,-66.406250
8826,-64.453125
8827,-68.359375
8828,-66.406250
8829,-64.453125
8830,-72.265625
8831,-66.406250
8832,-68.359375
8833,-72.265625
8834,-68.359375
8835,-72.265625
8836,-70.312500
8837,-72.265625
8838,-72.265625
8839,-72.265625
8840,-66.406250
8841,-72.265625
8842,-72.265625
8843,-74.218750
8844,-76.171875
8845,-72.265625
8846,-78.125000
8847,-76.171875
8848,-76.171875
8849,-78.125000
8850,-76.171875
8851,-83.984375
8852,-76.171875
8853,-80.078125
8854,-80.078125
8855,-80.078125
8856,-82.031250
8857,-80.078125
8858,-82.031250
8859,-82.031250
8860,-82.031250
8861,-82.031250
8862,-82.031250
8863,-83.984375
8864,-80.078125
8865,-85.937500
8866,-83.984375
8867,-82.031250
8868,-85.937500
8869,-83.984375
8870,-83.984375
8871,-85.937500
8872,-83.984375
8873,-83.984375
8874,-85.937500
8875,-82.031250
8876,-87.890625
8877,-83.984375
8878,-85.937500
8879,-85.937500
8880,-83.984375
8881,-93.750000
8882,-82.031250
8883,-85.937500
8884,-85.937500
8885,-85.937500
8886,-85.937500
8887,-85.937500
8888,-87.890625
8889,-85.937500
8890,-91.796875
8891,-87.890625
8892,-85.937500
8893,-87.890625
8894,-87.890625
8895,-87.890625
8896,-91.796875
8897,-85.937500
8898,-87.890625
8899,-87.890625
8900,-87.890625
8901,-89.843750
8902,-87.890625
8903,-87.890625
8904,-91.796875
8905,-87.890625
8906,-87.890625
8907,-87.890625
8908,-89.843750
8909,-87.890625
8910,-87.890625
8911,-91.796875
8912,-87.890625
8913,-91.796875
8914,-87.890625
8915,-91.796875
8916,-87.890625
8917,-87.890625
8918,-91.796875
8919,-87.890625
8920,-91.796875
8921,-87.890625
8922,-87.890625
8923,-91.796875
8924,-91.796875
8925,-89.843750
8926,-87.890625
8927,-89.843750
8928,-87.890625
8929,-87.890625
8930,-87.890625
8931,-91.796875
8932,-87.890625
8933,-87.890625
8934,-91.796875
8935,-87.890625
8936,-87.890625
8937,-85.937500
8938,-87.890625
8939,-87.890625
8940,-87.890625
8941,-91.796875
8942,-85.937500
8943,-87.890625
8944,-91.796875
8945,-87.890625
8946,-87.890625
8947,-91.796875
8948,-91.796875
8949,-87.890625
8950,-91.796875
8951,-87.890625
8952,-87.890625
8953,-91.796875
8954,-89.843750
8955,-87.890625
8956,-87.890625
8957,-87.890625
8958,-91.796875
8959,-91.796875
8960,-89.843750
8961,-91.796875
8962,-91.796875
8963,-91.796875
8964,-87.890625
8965,-91.796875
8966,-87.890625
8967,-87.890625
8968,-91.796875
8969,-87.890625
8970,-89.843750
8971,-91.796875
8972,-87.890625
8973,-91.796875
8974,-87.890625
8975,-87.890625
8976,-87.890625
8977,-93.750000
8978,-87.890625
8979,-87.890625
8980,-87.890625
8981,-87.890625
8982,-87.890625
8983,-87.890625
8984,-89.843750
8985,-87.890625
8986,-87.890625
8987,-87.890625
8988,-87.890625
8989,-91.796875
8990,-87.890625
8991,-91.796875
8992,-87.890625
8993,-85.937500
8994,-89.843750
8995,-87.890625
8996,-87.890625
8997,-87.890625
8998,-89.843750
8999,-87.890625
9000,-87.890625
9001,-87.890625
9002,-87.890625
9003,-87.890625
9004,-87.890625
9005,-91.796875
9006,-89.843750
9007,-87.890625
9008,-91.796875
9009,-85.937500
9010,-87.890625
9011,-87.890625
9012,-87.890625
9013,-91.796875
9014,-87.890625
9015,-91.796875
9016,-87.890625
9017,-87.890625
9018,-91.796875
9019,-87.890625
9020,-87.890625
9021,-87.890625
9022,-87.890625
9023,-91.796875
9024,-91.796875
9025,-91.796875
9026,-91.796875
9027,-87.890625
9028,-87.890625
9029,-87.890625
9030,-87.890625
9031,-89.843750
9032,-87.890625
9033,-91.796875
9034,-91.796875
9035,-91.796875
9036,-85.937500
9037,-87.890625
9038,-91.796875
9039,-87.890625
9040,-89.843750
9041,-87.890625
9042,-93.750000
9043,-91.796875
9044,-87.890625
9045,-91.796875
9046,-91.796875
9047,-87.890625
9048,-93.750000
9049,-91.796875
9050,-91.796875
9051,-91.796875
9052,-87.890625
9053,-89.843750
9054,-87.890625
9055,-91.796875
9056,-87.890625
9057,-91.796875
9058,-91.796875
9059,-91.796875
9060,-91.796875
9061,-91.796875
9062,-87.890625
9063,-91.796875
9064,-76.171875
9065,-91.796875
9066,-87.890625
9067,-91.796875
9068,-85.937500
9069,-93.750000
9070,-87.890625
9071,-91.796875
9072,-91.796875
9073,-91.796875
9074,-91.796875
9075,-87.890625
9076,-87.890625
9077,-93.750000
9078,-87.890625
9079,-89.843750
9080,-89.843750
9081,-87.890625
9082,-93.750000
9083,-87.890625
9084,-87.890625
9085,-87.890625
9086,-87.890625
9087,-91.796875
9088,-85.937500
9089,-91.796875
9090,-87.890625
9091,-87.890625
9092,-91.796875
9093,-91.796875
9094,-87.890625
9095,-87.890625
9096,-87.890625
9097,-87.890625
9098,-91.796875
9099,-91.796875
9100,-91.796875
9101,-93.750000
9102,-87.890625
9103,-89.843750
9104,-87.890625
9105,-89.843750
9106,-85.937500
9107,-87.890625
9108,-91.796875
9109,-87.890625
9110,-87.890625
9111,-87.890625
9112,-91.796875
9113,-87.890625
9114,-87.890625
9115,-91.796875
9116,-87.890625
9117,-91.796875
9118,-87.890625
9119,-89.843750
9120,-89.843750
9121,-85.937500
9122,-91.796875
9123,-87.890625
9124,-87.890625
9125,-72.265625
9126,-91.796875
9127,-87.890625
9128,-87.890625
9129,-87.890625
9130,-87.890625
9131,-89.843750
9132,-87.890625
9133,-91.796875
9134,-87.890625
9135,-91.796875
9136,-87.890625
9137,-87.890625
9138,-91.796875
9139,-87.890625
9140,-87.890625
9141,-87.890625
9142,-87.890625
9143,-87.890625
9144,-87.890625
9145,-87.890625
9146,-87.890625
9147,-91.796875
9148,-87.890625
9149,-87.890625
9150,-89.843750
9151,-87.890625
9152,-89.843750
9153,-87.890625
9154,-87.890625
9155,-91.796875
9156,-89.843750
9157,-89.843750
9158,-87.890625
9159,-87.890625
9160,-87.890625
9161,-87.890625
9162,-87.890625
9163,-97.656250
9164,-87.890625
9165,-91.796875
9166,-87.890625
9167,-89.843750
9168,-87.890625
9169,-87.890625
9170,-91.796875
9171,-87.890625
9172,-91.796875
9173,-97.656250
9174,-87.890625
9175,-87.890625
9176,-87.890625
9177,-87.890625
9178,-87.890625
9179,-87.890625
9180,-91.796875
9181,-87.890625
9182,-93.750000
9183,-87.890625
9184,-87.890625
9185,-87.890625
9186,-78.125000
9187,-87.890625
9188,-95.703125
9189,-87.890625
9190,-87.890625
9191,-87.890625
9192,-87.890625
9193,-91.796875
9194,-87.890625
9195,-89.843750
9196,-87.890625
9197,-89.843750
9198,-91.796875
9199,-87.890625
9200,-91.796875
9201,-87.890625
9202,-91.796875
9203,-91.796875
9204,-87.890625
9205,-91.796875
9206,-87.890625
9207,-87.890625
9208,-87.890625
9209,-87.890625
9210,-91.796875
9211,-85.937500
9212,-91.796875
9213,-87.890625
9214,-87.890625
9215,-87.890625
9216,-87.890625
9217,-87.890625
9218,-87.890625
9219,-87.890625
9220,-87.890625
9221,-85.937500
9222,-87.890625
9223,-87.890625
9224,-87.890625
9225,-85.937500
9226,-85.937500
9227,-85.937500
9228,-87.890625
9229,-83.984375
9230,-85.937500
9231,-85.937500
9232,-83.984375
9233,-83.984375
9234,-87.890625
9235,-87.890625
9236,-82.031250
9237,-83.984375
9238,-85.937500
9239,-83.984375
9240,-85.937500
9241,-72.265625
9242,-83.984375
9243,-83.984375
9244,-83.984375
9245,-85.937500
9246,-83.984375
9247,-78.125000
9248,-83.984375
9249,-83.984375
9250,-83.984375
9251,-83.984375
9252,-85.937500
9253,-85.937500
9254,-83.984375
9255,-85.937500
9256,-80.078125
9257,-85.937500
9258,-85.937500
9259,-83.984375
9260,-85.937500
9261,-85.937500
9262,-87.890625
9263,-85.937500
9264,-72.265625
9265,-82.031250
9266,-83.984375
9267,-85.937500
9268,-83.984375
9269,-80.078125
9270,-85.937500
9271,-82.031250
9272,-83.984375
9273,-83.984375
9274,-82.031250
9275,-82.031250
9276,-82.031250
9277,-83.984375
9278,-80.078125
9279,-78.125000
9280,-82.031250
9281,-82.031250
9282,-83.984375
9283,-83.984375
9284,-80.078125
9285,-82.031250
9286,-80.078125
9287,-80.078125
9288,-82.031250
9289,-80.078125
9290,-80.078125
9291,-80.078125
9292,-78.125000
9293,-80.078125
9294,-72.265625
9295,-70.312500
9296,-72.265625
9297,-76.171875
9298,-76.171875
9299,-72.265625
9300,-76.171875
9301,-68.359375
9302,-72.265625
9303,-68.359375
9304,-66.406250
9305,-68.359375
9306,-64.453125
9307,-66.406250
9308,-64.453125
9309,-64.453125
9310,-64.453125
9311,-62.500000
9312,-62.500000
9313,-64.453125
9314,-62.500000
9315,-60.546875
9316,-56.640625
9317,-60.546875
9318,-56.640625
9319,-60.546875
9320,-56.640625
9321,-56.640625
9322,-60.546875
9323,-54.687500
9324,-60.546875
9325,-56.640625
9326,-64.453125
9327,-56.640625
9328,-54.687500
9329,-56.640625
9330,-54.687500
9331,-50.781250
9332,-56.640625
9333,-48.828125
9334,-60.546875
9335,-52.734375
9336,-54.687500
9337,-56.640625
9338,-50.781250
9339,-58.593750
9340,-52.734375
9341,-54.687500
9342,-56.640625
9343,-52.734375
9344,-54.687500
9345,-52.734375
9346,-52.734375
9347,-56.640625
9348,-54.687500
9349,-56.640625
9350,-56.640625
9351,-50.781250
9352,-48.828125
9353,-56.640625
9354,-56.640625
9355,-56.640625
9356,-56.640625
9357,-56.640625
9358,-56.640625
9359,-54.687500
9360,-56.640625
9361,-52.734375
9362,-56.640625
9363,-54.687500
9364,-54.687500
9365,-56.640625
9366,-56.640625
9367,-56.640625
9368,-56.640625
9369,-56.640625
9370,-56.640625
9371,-56.640625
9372,-56.640625
9373,-54.687500
9374,-56.640625
9375,-56.640625
9376,-54.687500
9377,-56.640625
9378,-52.734375
9379,-54.687500
9380,-56.640625
9381,-54.687500
9382,-62.500000
9383,-56.640625
9384,-56.640625
9385,-54.687500
9386,-50.781250
9387,-54.687500
9388,-54.687500
9389,-52.734375
9390,-56.640625
9391,-48.828125
9392,-56.640625
9393,-52.734375
9394,-52.734375
9395,-52.734375
9396,-52.734375
9397,-56.640625
9398,-52.734375
9399,-54.687500
9400,-56.640625
9401,-54.687500
9402,-56.640625
9403,-54.687500
9404,-54.687500
9405,-54.687500
9406,-56.640625
9407,-54.687500
9408,-72.265625
9409,-56.640625
9410,-56.640625
9411,-52.734375
9412,-56.640625
9413,-52.734375
9414,-52.734375
9415,-56.640625
9416,-56.640625
9417,-56.640625
9418,-54.687500
9419,-54.687500
9420,-56.640625
9421,-54.687500
9422,-56.640625
9423,-52.734375
9424,-52.734375
9425,-56.640625
9426,-52.734375
9427,-56.640625
9428,-54.687500
9429,-56.640625
9430,-58.593750
9431,-52.734375
9432,-56.640625
9433,-54.687500
9434,-56.640625
9435,-56.640625
9436,-54.687500
9437,-56.640625
9438,-56.640625
9439,-52.734375
9440,-56.640625
9441,-54.687500
9442,-56.640625
9443,-54.687500
9444,-56.640625
9445,-56.640625
9446,-54.687500
9447,-56.640625
9448,-54.687500
9449,-54.687500
9450,-54.687500
9451,-52.734375
9452,-52.734375
9453,-54.687500
9454,-56.640625
9455,-56.640625
9456,-56.640625
9457,-60.546875
9458,-56.640625
9459,-56.640625
9460,-48.828125
9461,-56.640625
9462,-54.687500
9463,-56.640625
9464,-56.640625
9465,-52.734375
9466,-56.640625
9467,-56.640625
9468,-56.640625
9469,-62.500000
9470,-56.640625
9471,-56.640625
9472,-54.687500
9473,-54.687500
9474,-56.640625
9475,-54.687500
9476,-56.640625
9477,-48.828125
9478,-54.687500
9479,-54.687500
9480,-54.687500
9481,-50.781250
9482,-56.640625
9483,-54.687500
9484,-52.734375
9485,-56.640625
9486,-52.734375
9487,-56.640625
9488,-54.687500
9489,-54.687500
9490,-54.687500
9491,-52.734375
9492,-56.640625
9493,-54.687500
9494,-56.640625
9495,-56.640625
9496,-52.734375
9497,-56.640625
9498,-54.687500
9499,-54.687500
9500,-56.640625
9501,-56.640625
9502,-56.640625
9503,-54.687500
9504,-56.640625
9505,-56.640625
9506,-52.734375
9507,-56.640625
9508,-54.687500
9509,-54.687500
9510,-56.640625
9511,-56.640625
9512,-56.640625
9513,-54.687500
9514,-56.640625
9515,-56.640625
9516,-52.734375
9517,-60.546875
9518,-56.640625
9519,-56.640625
9520,-56.640625
9521,-54.687500
9522,-54.687500
9523,-52.734375
9524,-56.640625
9525,-56.640625
9526,-50.781250
9527,-56.640625
9528,-56.640625
9529,-56.640625
9530,-72.265625
9531,-56.640625
9532,-52.734375
9533,-56.640625
9534,-54.687500
9535,-54.687500
9536,-54.687500
9537,-54.687500
9538,-54.687500
9539,-48.828125
9540,-56.640625
9541,-52.734375
9542,-54.687500
9543,-56.640625
9544,-54.687500
9545,-58.593750
9546,-52.734375
9547,-56.640625
9548,-56.640625
9549,-54.687500
9550,-56.640625
9551,-54.687500
9552,-60.546875
9553,-56.640625
9554,-56.640625
9555,-56.640625
9556,-56.640625
9557,-56.640625
9558,-56.640625
9559,-54.687500
9560,-56.640625
9561,-62.500000
9562,-60.546875
9563,-62.500000
9564,-64.453125
9565,-60.546875
9566,-62.500000
9567,-62.500000
9568,-66.406250
9569,-64.453125
9570,-64.453125
9571,-68.359375
9572,-64.453125
9573,-70.312500
9574,-66.406250
9575,-66.406250
9576,-72.265625
9577,-66.406250
9578,-70.312500
9579,-66.406250
9580,-70.312500
9581,-72.265625
9582,-72.265625
9583,-72.265625
9584,-70.312500
9585,-72.265625
9586,-72.265625
9587,-70.312500
9588,-72.265625
9589,-70.312500
9590,-72.265625
9591,-72.265625
9592,-72.265625
9593,-72.265625
9594,-72.265625
9595,-72.265625
9596,-72.265625
9597,-72.265625
9598,-76.171875
9599,-76.171875
9600,-72.265625
9601,-76.171875
9602,-72.265625
9603,-72.265625
9604,-56.640625
9605,-74.218750
9606,-78.125000
9607,-72.265625
9608,-76.171875
9609,-72.265625
9610,-70.312500
9611,-76.171875
9612,-72.265625
9613,-76.171875
9614,-76.171875
9615,-76.171875
9616,-76.171875
9617,-74.218750
9618,-76.171875
9619,-76.171875
9620,-74.218750
9621,-76.171875
9622,-72.265625
9623,-76.171875
9624,-76.171875
9625,-78.125000
9626,-80.078125
9627,-76.171875
9628,-76.171875
9629,-74.218750
9630,-76.171875
9631,-76.171875
9632,-74.218750
9633,-76.171875
9634,-78.125000
9635,-76.171875
9636,-76.171875
9637,-76.171875
9638,-76.171875
9639,-70.312500
9640,-72.265625
9641,-78.125000
9642,-72.265625
9643,-76.171875
9644,-74.218750
9645,-76.171875
9646,-76.171875
9647,-74.218750
9648,-76.171875
9649,-74.218750
9650,-78.125000
9651,-76.171875
9652,-83.984375
9653,-76.171875
9654,-72.265625
9655,-78.125000
9656,-76.171875
9657,-78.125000
9658,-72.265625
9659,-76.171875
9660,-80.078125
9661,-76.171875
9662,-78.125000
9663,-76.171875
9664,-76.171875
9665,-76.171875
9666,-74.218750
9667,-76.171875
9668,-76.171875
9669,-76.171875
9670,-76.171875
9671,-76.171875
9672,-76.171875
9673,-76.171875
9674,-76.171875
9675,-78.125000
9676,-76.171875
9677,-78.125000
9678,-78.125000
9679,-72.265625
9680,-78.125000
9681,-78.125000
9682,-76.171875
9683,-76.171875
9684,-76.171875
9685,-78.125000
9686,-76.171875
9687,-87.890625
9688,-80.078125
9689,-76.171875
9690,-76.171875
9691,-72.265625
9692,-76.171875
9693,-76.171875
9694,-76.171875
9695,-80.078125
9696,-76.171875
9697,-80.078125
9698,-76.171875
9699,-78.125000
9700,-72.265625
9701,-76.171875
9702,-80.078125
9703,-76.171875
9704,-80.078125
9705,-82.031250
9706,-78.125000
9707,-78.125000
9708,-76.171875
9709,-76.171875
9710,-78.125000
9711,-72.265625
9712,-80.078125
9713,-78.125000
9714,-76.171875
9715,-78.125000
9716,-78.125000
9717,-82.031250
9718,-76.171875
9719,-80.078125
9720,-80.078125
9721,-78.125000
9722,-82.031250
9723,-78.125000
9724,-80.078125
9725,-80.078125
9726,-78.125000
9727,-82.031250
9728,-76.171875
9729,-80.078125
9730,-80.078125
9731,-76.171875
9732,-80.078125
9733,-80.078125
9734,-78.125000
9735,-85.937500
9736,-76.171875
9737,-80.078125
9738,-72.265625
9739,-80.078125
9740,-80.078125
9741,-78.125000
9742,-80.078125
9743,-76.171875
9744,-80.078125
9745,-78.125000
9746,-80.078125
9747,-80.078125
9748,-87.890625
9749,-78.125000
9750,-76.171875
9751,-80.078125
9752,-78.125000
9753,-78.125000
9754,-80.078125
9755,-78.125000
9756,-82.031250
9757,-76.171875
9758,-82.031250
9759,-80.078125
9760,-78.125000
9761,-82.031250
9762,-76.171875
9763,-82.031250
9764,-80.078125
9765,-80.078125
9766,-83.984375
9767,-78.125000
9768,-80.078125
9769,-80.078125
9770,-80.078125
9771,-80.078125
9772,-80.078125
9773,-80.078125
9774,-80.078125
9775,-78.125000
9776,-80.078125
9777,-80.078125
9778,-78.125000
9779,-80.078125
9780,-76.171875
9781,-80.078125
9782,-80.078125
9783,-82.031250
9784,-80.078125
9785,-78.125000
9786,-80.078125
9787,-76.171875
9788,-80.078125
9789,-78.125000
9790,-78.125000
9791,-82.031250
9792,-78.125000
9793,-80.078125
9794,-78.125000
9795,-80.078125
9796,-80.078125
9797,-76.171875
9798,-80.078125
9799,-80.078125
9800,-80.078125
9801,-80.078125
9802,-78.125000
9803,-80.078125
9804,-78.125000
9805,-80.078125
9806,-80.078125
9807,-80.078125
9808,-78.125000
9809,-78.125000
9810,-82.031250
9811,-80.078125
9812,-78.125000
9813,-80.078125
9814,-78.125000
9815,-80.078125
9816,-78.125000
9817,-80.078125
9818,-78.125000
9819,-82.031250
9820,-80.078125
9821,-76.171875
9822,-82.031250
9823,-80.078125
9824,-82.031250
9825,-72.265625
9826,-78.125000
9827,-82.031250
9828,-80.078125
9829,-80.078125
9830,-80.078125
9831,-78.125000
9832,-80.078125
9833,-78.125000
9834,-78.125000
9835,-82.031250
9836,-78.125000
9837,-80.078125
9838,-78.125000
9839,-76.171875
9840,-87.890625
9841,-76.171875
9842,-80.078125
9843,-78.125000
9844,-72.265625
9845,-76.171875
9846,-80.078125
9847,-78.125000
9848,-76.171875
9849,-82.031250
9850,-64.453125
9851,-76.171875
9852,-80.078125
9853,-83.984375
9854,-80.078125
9855,-78.125000
9856,-76.171875
9857,-72.265625
9858,-80.078125
9859,-78.125000
9860,-82.031250
9861,-80.078125
9862,-80.078125
9863,-80.078125
9864,-80.078125
9865,-82.031250
9866,-80.078125
9867,-80.078125
9868,-82.031250
9869,-78.125000
9870,-80.078125
9871,-78.125000
9872,-80.078125
9873,-80.078125
9874,-82.031250
9875,-80.078125
9876,-78.125000
9877,-78.125000
9878,-80.078125
9879,-76.171875
9880,-82.031250
9881,-80.078125
9882,-78.125000
9883,-80.078125
9884,-78.125000
9885,-80.078125
9886,-78.125000
9887,-78.125000
9888,-80.078125
9889,-78.125000
9890,-80.078125
9891,-80.078125
9892,-78.125000
9893,-80.078125
9894,-76.171875
9895,-80.078125
9896,-80.078125
9897,-80.078125
9898,-80.078125
9899,-78.125000
9900,-80.078125
9901,-78.125000
9902,-78.125000
9903,-80.078125
9904,-80.078125
9905,-80.078125
9906,-76.171875
9907,-78.125000
9908,-78.125000
9909,-80.078125
9910,-78.125000
9911,-78.125000
9912,-80.078125
9913,-78.125000
9914,-80.078125
9915,-87.890625
9916,-78.125000
9917,-80.078125
9918,-72.265625
9919,-78.125000
9920,-80.078125
9921,-78.125000
9922,-80.078125
9923,-76.171875
9924,-80.078125
9925,-80.078125
9926,-80.078125
9927,-80.078125
9928,-78.125000
9929,-78.125000
9930,-78.125000
9931,-72.265625
9932,-78.125000
9933,-78.125000
9934,-76.171875
9935,-80.078125
9936,-76.171875
9937,-80.078125
9938,-76.171875
9939,-80.078125
9940,-78.125000
9941,-76.171875
9942,-80.078125
9943,-85.937500
9944,-64.453125
9945,-80.078125
9946,-80.078125
9947,-80.078125
9948,-78.125000
9949,-80.078125
9950,-80.078125
9951,-76.171875
9952,-80.078125
9953,-80.078125
9954,-80.078125
9955,-80.078125
9956,-80.078125
9957,-95.703125
9958,-80.078125
9959,-80.078125
9960,-80.078125
9961,-80.078125
9962,-80.078125
9963,-80.078125
9964,-80.078125
9965,-80.078125
9966,-78.125000
9967,-78.125000
9968,-80.078125
9969,-78.125000
9970,-76.171875
9971,-78.125000
9972,-78.125000
9973,-80.078125
9974,-80.078125
9975,-80.078125
9976,-76.171875
9977,-80.078125
9978,-76.171875
9979,-76.171875
9980,-80.078125
9981,-76.171875
9982,-78.125000
9983,-80.078125
9984,-80.078125
9985,-83.984375
9986,-78.125000
9987,-80.078125
9988,-80.078125
9989,-80.078125
9990,-78.125000
9991,-76.171875
9992,-76.171875
9993,-78.125000
9994,-78.125000
9995,-78.125000
9996,-78.125000
9997,-80.078125
9998,-80.078125
9999,-80.078125
10000,-80.078125
