Channel              :,CH1
Frequency            :,  ?
Period               :,  ?
PK-PK                :,52.73mV
Probe attenuation    :,10X
Voltage per ADC value:,0.122070mV
Time interval        :,400.00000us

index,CH1_Voltage(mV)
1,-50.781250
2,-50.781250
3,-50.781250
4,-52.734375
5,-52.734375
6,-50.781250
7,-50.781250
8,-52.734375
9,-48.828125
10,-54.687500
11,-50.781250
12,-54.687500
13,-52.734375
14,-54.687500
15,-54.687500
16,-52.734375
17,-56.640625
18,-54.687500
19,-56.640625
20,-56.640625
21,-54.687500
22,-56.640625
23,-52.734375
24,-54.687500
25,-56.640625
26,-54.687500
27,-56.640625
28,-56.640625
29,-56.640625
30,-56.640625
31,-54.687500
32,-54.687500
33,-56.640625
34,-54.687500
35,-56.640625
36,-54.687500
37,-56.640625
38,-54.687500
39,-52.734375
40,-56.640625
41,-54.687500
42,-56.640625
43,-52.734375
44,-56.640625
45,-56.640625
46,-54.687500
47,-56.640625
48,-54.687500
49,-54.687500
50,-56.640625
51,-54.687500
52,-52.734375
53,-54.687500
54,-56.640625
55,-56.640625
56,-56.640625
57,-56.640625
58,-54.687500
59,-56.640625
60,-56.640625
61,-54.687500
62,-62.500000
63,-56.640625
64,-56.640625
65,-56.640625
66,-56.640625
67,-56.640625
68,-54.687500
69,-56.640625
70,-56.640625
71,-52.734375
72,-56.640625
73,-54.687500
74,-54.687500
75,-56.640625
76,-54.687500
77,-56.640625
78,-56.640625
79,-54.687500
80,-56.640625
81,-56.640625
82,-54.687500
83,-54.687500
84,-56.640625
85,-54.687500
86,-60.546875
87,-50.781250
88,-54.687500
89,-56.640625
90,-56.640625
91,-54.687500
92,-56.640625
93,-54.687500
94,-56.640625
95,-54.687500
96,-56.640625
97,-56.640625
98,-52.734375
99,-54.687500
100,-54.687500
101,-54.687500
102,-54.687500
103,-50.781250
104,-54.687500
105,-56.640625
106,-54.687500
107,-33.203125
108,-54.687500
109,-56.640625
110,-52.734375
111,-56.640625
112,-54.687500
113,-54.687500
114,-56.640625
115,-54.687500
116,-56.640625
117,-56.640625
118,-52.734375
119,-54.687500
120,-70.312500
121,-52.734375
122,-56.640625
123,-48.828125
124,-54.687500
125,-56.640625
126,-52.734375
127,-54.687500
128,-50.781250
129,-56.640625
130,-54.687500
131,-48.828125
132,-52.734375
133,-54.687500
134,-48.828125
135,-52.734375
136,-48.828125
137,-48.828125
138,-48.828125
139,-50.781250
140,-48.828125
141,-46.875000
142,-48.828125
143,-44.921875
144,-50.781250
145,-48.828125
146,-29.296875
147,-29.296875
148,-29.296875
149,-29.296875
150,-31.250000
151,-29.296875
152,-29.296875
153,-29.296875
154,-29.296875
155,-31.250000
156,-29.296875
157,-29.296875
158,-29.296875
159,-29.296875
160,-29.296875
161,-29.296875
162,-29.296875
163,-21.484375
164,-29.296875
165,-29.296875
166,-29.296875
167,-31.250000
168,-29.296875
169,-29.296875
170,-31.250000
171,-29.296875
172,-31.250000
173,-27.343750
174,-29.296875
175,-31.250000
176,-29.296875
177,-29.296875
178,-29.296875
179,-29.296875
180,-29.296875
181,-29.296875
182,-29.296875
183,-29.296875
184,-25.390625
185,-29.296875
186,-29.296875
187,-29.296875
188,-29.296875
189,-29.296875
190,-31.250000
191,-27.343750
192,-29.296875
193,-29.296875
194,-29.296875
195,-31.250000
196,-29.296875
197,-31.250000
198,-29.296875
199,-25.390625
200,-39.062500
201,-29.296875
202,-31.250000
203,-29.296875
204,-31.250000
205,-29.296875
206,-29.296875
207,-33.203125
208,-29.296875
209,-29.296875
210,-29.296875
211,-25.390625
212,-31.250000
213,-25.390625
214,-29.296875
215,-29.296875
216,-29.296875
217,-29.296875
218,-29.296875
219,-31.250000
220,-29.296875
221,-29.296875
222,-29.296875
223,-29.296875
224,-29.296875
225,-29.296875
226,-29.296875
227,-31.250000
228,-29.296875
229,-29.296875
230,-29.296875
231,-29.296875
232,-31.250000
233,-31.250000
234,-25.390625
235,-31.250000
236,-29.296875
237,-29.296875
238,-29.296875
239,-29.296875
240,-31.250000
241,-29.296875
242,-31.250000
243,-29.296875
244,-29.296875
245,-29.296875
246,-29.296875
247,-29.296875
248,-29.296875
249,-29.296875
250,-29.296875
251,-29.296875
252,-31.250000
253,-29.296875
254,-31.250000
255,-29.296875
256,-29.296875
257,-29.296875
258,-25.390625
259,-29.296875
260,-31.250000
261,-25.390625
262,-31.250000
263,-31.250000
264,-29.296875
265,-29.296875
266,-29.296875
267,-31.250000
268,-31.250000
269,-29.296875
270,-29.296875
271,-29.296875
272,-29.296875
273,-31.250000
274,-29.296875
275,-29.296875
276,-29.296875
277,-29.296875
278,-31.250000
279,-25.390625
280,-23.437500
281,-29.296875
282,-29.296875
283,-31.250000
284,-31.250000
285,-31.250000
286,-29.296875
287,-33.203125
288,-29.296875
289,-33.203125
290,-33.203125
291,-31.250000
292,-31.250000
293,-29.296875
294,-35.156250
295,-33.203125
296,-33.203125
297,-31.250000
298,-31.250000
299,-33.203125
300,-31.250000
301,-33.203125
302,-35.156250
303,-31.250000
304,-33.203125
305,-33.203125
306,-33.203125
307,-33.203125
308,-33.203125
309,-33.203125
310,-31.250000
311,-33.203125
312,-33.203125
313,-33.203125
314,-35.156250
315,-33.203125
316,-33.203125
317,-35.156250
318,-33.203125
319,-35.156250
320,-33.203125
321,-33.203125
322,-35.156250
323,-35.156250
324,-33.203125
325,-35.156250
326,-33.203125
327,-25.390625
328,-35.156250
329,-33.203125
330,-35.156250
331,-35.156250
332,-39.062500
333,-35.156250
334,-37.109375
335,-35.156250
336,-37.109375
337,-37.109375
338,-37.109375
339,-39.062500
340,-37.109375
341,-39.062500
342,-37.109375
343,-35.156250
344,-39.062500
345,-41.015625
346,-39.062500
347,-41.015625
348,-37.109375
349,-41.015625
350,-37.109375
351,-39.062500
352,-37.109375
353,-35.156250
354,-37.109375
355,-39.062500
356,-39.062500
357,-41.015625
358,-37.109375
359,-39.062500
360,-41.015625
361,-39.062500
362,-41.015625
363,-39.062500
364,-39.062500
365,-41.015625
366,-41.015625
367,-41.015625
368,-39.062500
369,-41.015625
370,-41.015625
371,-41.015625
372,-42.968750
373,-41.015625
374,-41.015625
375,-41.015625
376,-41.015625
377,-41.015625
378,-41.015625
379,-41.015625
380,-41.015625
381,-44.921875
382,-44.921875
383,-41.015625
384,-41.015625
385,-41.015625
386,-42.968750
387,-35.156250
388,-41.015625
389,-44.921875
390,-41.015625
391,-44.921875
392,-42.968750
393,-41.015625
394,-46.875000
395,-44.921875
396,-41.015625
397,-44.921875
398,-44.921875
399,-46.875000
400,-41.015625
401,-44.921875
402,-46.875000
403,-44.921875
404,-46.875000
405,-48.828125
406,-44.921875
407,-44.921875
408,-44.921875
409,-41.015625
410,-44.921875
411,-46.875000
412,-44.921875
413,-44.921875
414,-48.828125
415,-44.921875
416,-44.921875
417,-60.546875
418,-44.921875
419,-44.921875
420,-44.921875
421,-46.875000
422,-44.921875
423,-44.921875
424,-46.875000
425,-41.015625
426,-44.921875
427,-44.921875
428,-44.921875
429,-46.875000
430,-44.921875
431,-44.921875
432,-48.828125
433,-44.921875
434,-44.921875
435,-44.921875
436,-46.875000
437,-44.921875
438,-44.921875
439,-46.875000
440,-46.875000
441,-44.921875
442,-44.921875
443,-44.921875
444,-44.921875
445,-44.921875
446,-44.921875
447,-56.640625
448,-44.921875
449,-46.875000
450,-44.921875
451,-48.828125
452,-41.015625
453,-46.875000
454,-44.921875
455,-46.875000
456,-46.875000
457,-44.921875
458,-46.875000
459,-44.921875
460,-48.828125
461,-41.015625
462,-44.921875
463,-48.828125
464,-44.921875
465,-44.921875
466,-46.875000
467,-44.921875
468,-46.875000
469,-44.921875
470,-44.921875
471,-48.828125
472,-44.921875
473,-44.921875
474,-46.875000
475,-42.968750
476,-44.921875
477,-39.062500
478,-42.968750
479,-44.921875
480,-44.921875
481,-44.921875
482,-46.875000
483,-41.015625
484,-44.921875
485,-44.921875
486,-44.921875
487,-44.921875
488,-44.921875
489,-48.828125
490,-44.921875
491,-42.968750
492,-44.921875
493,-42.968750
494,-44.921875
495,-44.921875
496,-42.968750
497,-44.921875
498,-42.968750
499,-42.968750
500,-44.921875
501,-44.921875
502,-44.921875
503,-44.921875
504,-44.921875
505,-44.921875
506,-41.015625
507,-44.921875
508,-44.921875
509,-41.015625
510,-44.921875
511,-39.062500
512,-42.968750
513,-41.015625
514,-44.921875
515,-44.921875
516,-37.109375
517,-41.015625
518,-41.015625
519,-41.015625
520,-42.968750
521,-41.015625
522,-44.921875
523,-42.968750
524,-54.687500
525,-44.921875
526,-41.015625
527,-41.015625
528,-41.015625
529,-39.062500
530,-44.921875
531,-41.015625
532,-41.015625
533,-44.921875
534,-41.015625
535,-44.921875
536,-41.015625
537,-41.015625
538,-41.015625
539,-41.015625
540,-41.015625
541,-41.015625
542,-41.015625
543,-41.015625
544,-44.921875
545,-41.015625
546,-41.015625
547,-44.921875
548,-42.968750
549,-39.062500
550,-44.921875
551,-41.015625
552,-44.921875
553,-41.015625
554,-46.875000
555,-42.968750
556,-41.015625
557,-42.968750
558,-44.921875
559,-41.015625
560,-48.828125
561,-41.015625
562,-44.921875
563,-42.968750
564,-42.968750
565,-44.921875
566,-41.015625
567,-44.921875
568,-41.015625
569,-44.921875
570,-41.015625
571,-41.015625
572,-44.921875
573,-41.015625
574,-41.015625
575,-42.968750
576,-44.921875
577,-41.015625
578,-41.015625
579,-41.015625
580,-41.015625
581,-41.015625
582,-41.015625
583,-41.015625
584,-50.781250
585,-41.015625
586,-41.015625
587,-41.015625
588,-41.015625
589,-41.015625
590,-44.921875
591,-41.015625
592,-41.015625
593,-41.015625
594,-44.921875
595,-44.921875
596,-41.015625
597,-44.921875
598,-44.921875
599,-41.015625
600,-41.015625
601,-41.015625
602,-44.921875
603,-42.968750
604,-44.921875
605,-42.968750
606,-41.015625
607,-44.921875
608,-39.062500
609,-44.921875
610,-44.921875
611,-41.015625
612,-44.921875
613,-41.015625
614,-44.921875
615,-44.921875
616,-41.015625
617,-44.921875
618,-41.015625
619,-44.921875
620,-41.015625
621,-41.015625
622,-42.968750
623,-41.015625
624,-35.156250
625,-41.015625
626,-44.921875
627,-46.875000
628,-44.921875
629,-41.015625
630,-44.921875
631,-41.015625
632,-41.015625
633,-44.921875
634,-41.015625
635,-44.921875
636,-39.062500
637,-44.921875
638,-44.921875
639,-41.015625
640,-41.015625
641,-41.015625
642,-41.015625
643,-41.015625
644,-44.921875
645,-44.921875
646,-44.921875
647,-44.921875
648,-42.968750
649,-44.921875
650,-44.921875
651,-41.015625
652,-44.921875
653,-42.968750
654,-41.015625
655,-44.921875
656,-41.015625
657,-44.921875
658,-41.015625
659,-44.921875
660,-44.921875
661,-41.015625
662,-44.921875
663,-41.015625
664,-41.015625
665,-42.968750
666,-39.062500
667,-44.921875
668,-41.015625
669,-41.015625
670,-41.015625
671,-41.015625
672,-41.015625
673,-41.015625
674,-39.062500
675,-41.015625
676,-41.015625
677,-42.968750
678,-41.015625
679,-41.015625
680,-41.015625
681,-41.015625
682,-41.015625
683,-37.109375
684,-41.015625
685,-41.015625
686,-41.015625
687,-41.015625
688,-41.015625
689,-41.015625
690,-41.015625
691,-37.109375
692,-41.015625
693,-41.015625
694,-41.015625
695,-39.062500
696,-41.015625
697,-41.015625
698,-39.062500
699,-41.015625
700,-35.156250
701,-41.015625
702,-39.062500
703,-41.015625
704,-41.015625
705,-39.062500
706,-41.015625
707,-39.062500
708,-41.015625
709,-41.015625
710,-41.015625
711,-41.015625
712,-41.015625
713,-41.015625
714,-39.062500
715,-41.015625
716,-41.015625
717,-41.015625
718,-39.062500
719,-41.015625
720,-37.109375
721,-41.015625
722,-41.015625
723,-39.062500
724,-39.062500
725,-37.109375
726,-39.062500
727,-41.015625
728,-41.015625
729,-41.015625
730,-41.015625
731,-41.015625
732,-41.015625
733,-39.062500
734,-50.781250
735,-41.015625
736,-39.062500
737,-41.015625
738,-41.015625
739,-41.015625
740,-41.015625
741,-39.062500
742,-42.968750
743,-39.062500
744,-41.015625
745,-39.062500
746,-41.015625
747,-42.968750
748,-41.015625
749,-42.968750
750,-41.015625
751,-44.921875
752,-46.875000
753,-41.015625
754,-41.015625
755,-41.015625
756,-41.015625
757,-41.015625
758,-41.015625
759,-41.015625
760,-41.015625
761,-41.015625
762,-41.015625
763,-41.015625
764,-41.015625
765,-42.968750
766,-41.015625
767,-42.968750
768,-41.015625
769,-41.015625
770,-44.921875
771,-41.015625
772,-41.015625
773,-41.015625
774,-41.015625
775,-41.015625
776,-42.968750
777,-41.015625
778,-41.015625
779,-41.015625
780,-41.015625
781,-41.015625
782,-41.015625
783,-41.015625
784,-41.015625
785,-44.921875
786,-41.015625
787,-44.921875
788,-41.015625
789,-42.968750
790,-42.968750
791,-41.015625
792,-44.921875
793,-42.968750
794,-44.921875
795,-41.015625
796,-41.015625
797,-44.921875
798,-41.015625
799,-44.921875
800,-44.921875
801,-44.921875
802,-44.921875
803,-44.921875
804,-44.921875
805,-44.921875
806,-44.921875
807,-46.875000
808,-44.921875
809,-44.921875
810,-44.921875
811,-44.921875
812,-44.921875
813,-44.921875
814,-42.968750
815,-44.921875
816,-46.875000
817,-46.875000
818,-44.921875
819,-44.921875
820,-44.921875
821,-44.921875
822,-46.875000
823,-44.921875
824,-48.828125
825,-44.921875
826,-44.921875
827,-44.921875
828,-37.109375
829,-44.921875
830,-44.921875
831,-44.921875
832,-44.921875
833,-41.015625
834,-44.921875
835,-46.875000
836,-44.921875
837,-44.921875
838,-42.968750
839,-44.921875
840,-42.968750
841,-41.015625
842,-41.015625
843,-44.921875
844,-44.921875
845,-44.921875
846,-39.062500
847,-46.875000
848,-41.015625
849,-44.921875
850,-44.921875
851,-44.921875
852,-44.921875
853,-42.968750
854,-48.828125
855,-44.921875
856,-44.921875
857,-44.921875
858,-44.921875
859,-46.875000
860,-41.015625
861,-44.921875
862,-41.015625
863,-44.921875
864,-44.921875
865,-44.921875
866,-44.921875
867,-42.968750
868,-44.921875
869,-44.921875
870,-44.921875
871,-41.015625
872,-44.921875
873,-44.921875
874,-46.875000
875,-44.921875
876,-44.921875
877,-44.921875
878,-44.921875
879,-44.921875
880,-44.921875
881,-44.921875
882,-44.921875
883,-44.921875
884,-46.875000
885,-44.921875
886,-46.875000
887,-44.921875
888,-48.828125
889,-46.875000
890,-44.921875
891,-44.921875
892,-44.921875
893,-44.921875
894,-44.921875
895,-44.921875
896,-44.921875
897,-41.015625
898,-46.875000
899,-41.015625
900,-44.921875
901,-44.921875
902,-44.921875
903,-44.921875
904,-41.015625
905,-44.921875
906,-41.015625
907,-41.015625
908,-44.921875
909,-41.015625
910,-42.968750
911,-41.015625
912,-41.015625
913,-44.921875
914,-41.015625
915,-44.921875
916,-42.968750
917,-41.015625
918,-56.640625
919,-41.015625
920,-41.015625
921,-41.015625
922,-41.015625
923,-42.968750
924,-42.968750
925,-44.921875
926,-41.015625
927,-44.921875
928,-42.968750
929,-42.968750
930,-42.968750
931,-44.921875
932,-44.921875
933,-44.921875
934,-41.015625
935,-44.921875
936,-41.015625
937,-44.921875
938,-44.921875
939,-41.015625
940,-44.921875
941,-41.015625
942,-44.921875
943,-42.968750
944,-44.921875
945,-44.921875
946,-42.968750
947,-44.921875
948,-48.828125
949,-44.921875
950,-44.921875
951,-44.921875
952,-44.921875
953,-44.921875
954,-46.875000
955,-42.968750
956,-46.875000
957,-44.921875
958,-44.921875
959,-44.921875
960,-41.015625
961,-44.921875
962,-42.968750
963,-44.921875
964,-44.921875
965,-41.015625
966,-44.921875
967,-44.921875
968,-41.015625
969,-44.921875
970,-41.015625
971,-42.968750
972,-44.921875
973,-42.968750
974,-48.828125
975,-41.015625
976,-44.921875
977,-44.921875
978,-35.156250
979,-41.015625
980,-41.015625
981,-41.015625
982,-42.968750
983,-41.015625
984,-41.015625
985,-41.015625
986,-41.015625
987,-41.015625
988,-41.015625
989,-41.015625
990,-41.015625
991,-41.015625
992,-44.921875
993,-41.015625
994,-44.921875
995,-41.015625
996,-39.062500
997,-41.015625
998,-41.015625
999,-44.921875
1000,-41.015625
1001,-41.015625
1002,-44.921875
1003,-41.015625
1004,-42.968750
1005,-41.015625
1006,-42.968750
1007,-41.015625
1008,-41.015625
1009,-44.921875
1010,-42.968750
1011,-44.921875
1012,-41.015625
1013,-44.921875
1014,-44.921875
1015,-41.015625
1016,-44.921875
1017,-44.921875
1018,-44.921875
1019,-44.921875
1020,-44.921875
1021,-44.921875
1022,-44.921875
1023,-44.921875
1024,-44.921875
1025,-41.015625
1026,-44.921875
1027,-44.921875
1028,-44.921875
1029,-44.921875
1030,-42.968750
1031,-44.921875
1032,-46.875000
1033,-44.921875
1034,-50.781250
1035,-41.015625
1036,-46.875000
1037,-44.921875
1038,-48.828125
1039,-44.921875
1040,-44.921875
1041,-44.921875
1042,-44.921875
1043,-46.875000
1044,-46.875000
1045,-44.921875
1046,-46.875000
1047,-44.921875
1048,-48.828125
1049,-44.921875
1050,-44.921875
1051,-46.875000
1052,-44.921875
1053,-48.828125
1054,-44.921875
1055,-41.015625
1056,-46.875000
1057,-46.875000
1058,-44.921875
1059,-48.828125
1060,-44.921875
1061,-44.921875
1062,-48.828125
1063,-44.921875
1064,-46.875000
1065,-44.921875
1066,-46.875000
1067,-44.921875
1068,-52.734375
1069,-44.921875
1070,-44.921875
1071,-48.828125
1072,-44.921875
1073,-44.921875
1074,-46.875000
1075,-44.921875
1076,-48.828125
1077,-44.921875
1078,-46.875000
1079,-44.921875
1080,-44.921875
1081,-46.875000
1082,-44.921875
1083,-44.921875
1084,-44.921875
1085,-52.734375
1086,-46.875000
1087,-44.921875
1088,-46.875000
1089,-44.921875
1090,-44.921875
1091,-44.921875
1092,-46.875000
1093,-41.015625
1094,-44.921875
1095,-44.921875
1096,-44.921875
1097,-44.921875
1098,-48.828125
1099,-44.921875
1100,-46.875000
1101,-46.875000
1102,-44.921875
1103,-48.828125
1104,-44.921875
1105,-46.875000
1106,-44.921875
1107,-44.921875
1108,-48.828125
1109,-44.921875
1110,-46.875000
1111,-46.875000
1112,-46.875000
1113,-41.015625
1114,-44.921875
1115,-54.687500
1116,-44.921875
1117,-44.921875
1118,-44.921875
1119,-44.921875
1120,-44.921875
1121,-46.875000
1122,-44.921875
1123,-48.828125
1124,-44.921875
1125,-46.875000
1126,-44.921875
1127,-44.921875
1128,-46.875000
1129,-44.921875
1130,-46.875000
1131,-46.875000
1132,-46.875000
1133,-44.921875
1134,-46.875000
1135,-46.875000
1136,-46.875000
1137,-48.828125
1138,-44.921875
1139,-44.921875
1140,-46.875000
1141,-44.921875
1142,-48.828125
1143,-44.921875
1144,-44.921875
1145,-50.781250
1146,-44.921875
1147,-44.921875
1148,-46.875000
1149,-46.875000
1150,-46.875000
1151,-44.921875
1152,-46.875000
1153,-46.875000
1154,-44.921875
1155,-46.875000
1156,-44.921875
1157,-44.921875
1158,-48.828125
1159,-44.921875
1160,-48.828125
1161,-44.921875
1162,-44.921875
1163,-44.921875
1164,-46.875000
1165,-44.921875
1166,-48.828125
1167,-44.921875
1168,-46.875000
1169,-44.921875
1170,-46.875000
1171,-41.015625
1172,-48.828125
1173,-44.921875
1174,-44.921875
1175,-31.250000
1176,-44.921875
1177,-46.875000
1178,-44.921875
1179,-44.921875
1180,-48.828125
1181,-44.921875
1182,-46.875000
1183,-44.921875
1184,-44.921875
1185,-46.875000
1186,-44.921875
1187,-48.828125
1188,-44.921875
1189,-41.015625
1190,-46.875000
1191,-42.968750
1192,-46.875000
1193,-44.921875
1194,-44.921875
1195,-48.828125
1196,-44.921875
1197,-44.921875
1198,-46.875000
1199,-48.828125
1200,-46.875000
1201,-58.593750
1202,-44.921875
1203,-44.921875
1204,-46.875000
1205,-44.921875
1206,-48.828125
1207,-44.921875
1208,-46.875000
1209,-44.921875
1210,-41.015625
1211,-46.875000
1212,-44.921875
1213,-46.875000
1214,-46.875000
1215,-48.828125
1216,-48.828125
1217,-44.921875
1218,-48.828125
1219,-46.875000
1220,-46.875000
1221,-48.828125
1222,-44.921875
1223,-46.875000
1224,-44.921875
1225,-44.921875
1226,-46.875000
1227,-48.828125
1228,-44.921875
1229,-48.828125
1230,-44.921875
1231,-46.875000
1232,-50.781250
1233,-46.875000
1234,-50.781250
1235,-52.734375
1236,-48.828125
1237,-44.921875
1238,-48.828125
1239,-48.828125
1240,-46.875000
1241,-48.828125
1242,-46.875000
1243,-46.875000
1244,-50.781250
1245,-46.875000
1246,-48.828125
1247,-44.921875
1248,-48.828125
1249,-50.781250
1250,-46.875000
1251,-48.828125
1252,-39.062500
1253,-48.828125
1254,-48.828125
1255,-48.828125
1256,-48.828125
1257,-48.828125
1258,-48.828125
1259,-48.828125
1260,-46.875000
1261,-48.828125
1262,-44.921875
1263,-48.828125
1264,-50.781250
1265,-46.875000
1266,-48.828125
1267,-46.875000
1268,-46.875000
1269,-48.828125
1270,-48.828125
1271,-48.828125
1272,-54.687500
1273,-50.781250
1274,-48.828125
1275,-48.828125
1276,-48.828125
1277,-46.875000
1278,-48.828125
1279,-46.875000
1280,-48.828125
1281,-48.828125
1282,-48.828125
1283,-46.875000
1284,-48.828125
1285,-50.781250
1286,-50.781250
1287,-46.875000
1288,-50.781250
1289,-48.828125
1290,-48.828125
1291,-48.828125
1292,-48.828125
1293,-50.781250
1294,-48.828125
1295,-48.828125
1296,-50.781250
1297,-44.921875
1298,-52.734375
1299,-46.875000
1300,-48.828125
1301,-46.875000
1302,-46.875000
1303,-52.734375
1304,-48.828125
1305,-48.828125
1306,-48.828125
1307,-48.828125
1308,-48.828125
1309,-48.828125
1310,-50.781250
1311,-46.875000
1312,-48.828125
1313,-48.828125
1314,-48.828125
1315,-48.828125
1316,-50.781250
1317,-41.015625
1318,-48.828125
1319,-46.875000
1320,-46.875000
1321,-46.875000
1322,-46.875000
1323,-48.828125
1324,-46.875000
1325,-48.828125
1326,-48.828125
1327,-44.921875
1328,-48.828125
1329,-44.921875
1330,-48.828125
1331,-46.875000
1332,-46.875000
1333,-48.828125
1334,-48.828125
1335,-54.687500
1336,-46.875000
1337,-48.828125
1338,-54.687500
1339,-48.828125
1340,-50.781250
1341,-46.875000
1342,-48.828125
1343,-46.875000
1344,-46.875000
1345,-50.781250
1346,-48.828125
1347,-48.828125
1348,-50.781250
1349,-50.781250
1350,-50.781250
1351,-48.828125
1352,-48.828125
1353,-50.781250
1354,-46.875000
1355,-48.828125
1356,-48.828125
1357,-50.781250
1358,-48.828125
1359,-46.875000
1360,-50.781250
1361,-48.828125
1362,-48.828125
1363,-48.828125
1364,-48.828125
1365,-48.828125
1366,-48.828125
1367,-48.828125
1368,-48.828125
1369,-48.828125
1370,-48.828125
1371,-48.828125
1372,-50.781250
1373,-44.921875
1374,-48.828125
1375,-48.828125
1376,-46.875000
1377,-48.828125
1378,-48.828125
1379,-46.875000
1380,-44.921875
1381,-46.875000
1382,-48.828125
1383,-48.828125
1384,-48.828125
1385,-46.875000
1386,-48.828125
1387,-48.828125
1388,-48.828125
1389,-39.062500
1390,-56.640625
1391,-48.828125
1392,-48.828125
1393,-46.875000
1394,-48.828125
1395,-48.828125
1396,-48.828125
1397,-56.640625
1398,-48.828125
1399,-48.828125
1400,-48.828125
1401,-48.828125
1402,-48.828125
1403,-46.875000
1404,-50.781250
1405,-48.828125
1406,-54.687500
1407,-48.828125
1408,-46.875000
1409,-50.781250
1410,-46.875000
1411,-54.687500
1412,-50.781250
1413,-48.828125
1414,-48.828125
1415,-48.828125
1416,-50.781250
1417,-46.875000
1418,-48.828125
1419,-62.500000
1420,-46.875000
1421,-52.734375
1422,-48.828125
1423,-46.875000
1424,-50.781250
1425,-48.828125
1426,-46.875000
1427,-48.828125
1428,-46.875000
1429,-50.781250
1430,-46.875000
1431,-50.781250
1432,-48.828125
1433,-48.828125
1434,-50.781250
1435,-52.734375
1436,-48.828125
1437,-48.828125
1438,-48.828125
1439,-48.828125
1440,-50.781250
1441,-52.734375
1442,-48.828125
1443,-50.781250
1444,-48.828125
1445,-48.828125
1446,-48.828125
1447,-46.875000
1448,-48.828125
1449,-31.250000
1450,-46.875000
1451,-48.828125
1452,-48.828125
1453,-52.734375
1454,-42.968750
1455,-52.734375
1456,-44.921875
1457,-48.828125
1458,-44.921875
1459,-48.828125
1460,-50.781250
1461,-46.875000
1462,-46.875000
1463,-50.781250
1464,-48.828125
1465,-48.828125
1466,-48.828125
1467,-48.828125
1468,-50.781250
1469,-46.875000
1470,-48.828125
1471,-50.781250
1472,-48.828125
1473,-48.828125
1474,-44.921875
1475,-48.828125
1476,-44.921875
1477,-44.921875
1478,-48.828125
1479,-48.828125
1480,-48.828125
1481,-48.828125
1482,-44.921875
1483,-46.875000
1484,-48.828125
1485,-48.828125
1486,-50.781250
1487,-52.734375
1488,-48.828125
1489,-46.875000
1490,-48.828125
1491,-50.781250
1492,-46.875000
1493,-50.781250
1494,-48.828125
1495,-48.828125
1496,-48.828125
1497,-44.921875
1498,-50.781250
1499,-46.875000
1500,-46.875000
1501,-48.828125
1502,-48.828125
1503,-50.781250
1504,-48.828125
1505,-48.828125
1506,-48.828125
1507,-46.875000
1508,-56.640625
1509,-60.546875
1510,-48.828125
1511,-50.781250
1512,-48.828125
1513,-48.828125
1514,-48.828125
1515,-52.734375
1516,-50.781250
1517,-48.828125
1518,-48.828125
1519,-46.875000
1520,-46.875000
1521,-48.828125
1522,-44.921875
1523,-46.875000
1524,-48.828125
1525,-48.828125
1526,-48.828125
1527,-48.828125
1528,-50.781250
1529,-48.828125
1530,-48.828125
1531,-48.828125
1532,-44.921875
1533,-50.781250
1534,-48.828125
1535,-46.875000
1536,-50.781250
1537,-48.828125
1538,-48.828125
1539,-44.921875
1540,-48.828125
1541,-48.828125
1542,-48.828125
1543,-48.828125
1544,-50.781250
1545,-46.875000
1546,-50.781250
1547,-46.875000
1548,-50.781250
1549,-48.828125
1550,-48.828125
1551,-50.781250
1552,-44.921875
1553,-50.781250
1554,-44.921875
1555,-48.828125
1556,-68.359375
1557,-48.828125
1558,-48.828125
1559,-46.875000
1560,-50.781250
1561,-48.828125
1562,-46.875000
1563,-48.828125
1564,-48.828125
1565,-48.828125
1566,-50.781250
1567,-48.828125
1568,-48.828125
1569,-50.781250
1570,-48.828125
1571,-50.781250
1572,-46.875000
1573,-48.828125
1574,-50.781250
1575,-44.921875
1576,-50.781250
1577,-46.875000
1578,-50.781250
1579,-46.875000
1580,-48.828125
1581,-48.828125
1582,-46.875000
1583,-50.781250
1584,-48.828125
1585,-46.875000
1586,-46.875000
1587,-48.828125
1588,-50.781250
1589,-50.781250
1590,-46.875000
1591,-48.828125
1592,-46.875000
1593,-46.875000
1594,-46.875000
1595,-44.921875
1596,-48.828125
1597,-44.921875
1598,-48.828125
1599,-46.875000
1600,-46.875000
1601,-46.875000
1602,-44.921875
1603,-44.921875
1604,-44.921875
1605,-44.921875
1606,-46.875000
1607,-42.968750
1608,-44.921875
1609,-44.921875
1610,-41.015625
1611,-44.921875
1612,-41.015625
1613,-42.968750
1614,-41.015625
1615,-41.015625
1616,-41.015625
1617,-41.015625
1618,-41.015625
1619,-41.015625
1620,-39.062500
1621,-23.437500
1622,-41.015625
1623,-41.015625
1624,-41.015625
1625,-39.062500
1626,-37.109375
1627,-41.015625
1628,-41.015625
1629,-41.015625
1630,-39.062500
1631,-41.015625
1632,-41.015625
1633,-37.109375
1634,-41.015625
1635,-37.109375
1636,-41.015625
1637,-39.062500
1638,-39.062500
1639,-41.015625
1640,-37.109375
1641,-56.640625
1642,-39.062500
1643,-41.015625
1644,-39.062500
1645,-41.015625
1646,-41.015625
1647,-41.015625
1648,-39.062500
1649,-41.015625
1650,-41.015625
1651,-41.015625
1652,-37.109375
1653,-41.015625
1654,-41.015625
1655,-41.015625
1656,-41.015625
1657,-41.015625
1658,-41.015625
1659,-41.015625
1660,-41.015625
1661,-41.015625
1662,-37.109375
1663,-39.062500
1664,-41.015625
1665,-41.015625
1666,-41.015625
1667,-41.015625
1668,-41.015625
1669,-44.921875
1670,-41.015625
1671,-42.968750
1672,-35.156250
1673,-41.015625
1674,-41.015625
1675,-41.015625
1676,-44.921875
1677,-41.015625
1678,-41.015625
1679,-41.015625
1680,-41.015625
1681,-41.015625
1682,-41.015625
1683,-41.015625
1684,-41.015625
1685,-41.015625
1686,-44.921875
1687,-41.015625
1688,-41.015625
1689,-41.015625
1690,-41.015625
1691,-41.015625
1692,-41.015625
1693,-41.015625
1694,-41.015625
1695,-39.062500
1696,-44.921875
1697,-39.062500
1698,-41.015625
1699,-41.015625
1700,-41.015625
1701,-41.015625
1702,-41.015625
1703,-41.015625
1704,-41.015625
1705,-44.921875
1706,-54.687500
1707,-44.921875
1708,-41.015625
1709,-41.015625
1710,-44.921875
1711,-41.015625
1712,-42.968750
1713,-44.921875
1714,-39.062500
1715,-41.015625
1716,-41.015625
1717,-42.968750
1718,-41.015625
1719,-37.109375
1720,-41.015625
1721,-41.015625
1722,-41.015625
1723,-41.015625
1724,-41.015625
1725,-44.921875
1726,-41.015625
1727,-41.015625
1728,-42.968750
1729,-41.015625
1730,-41.015625
1731,-42.968750
1732,-37.109375
1733,-42.968750
1734,-41.015625
1735,-35.156250
1736,-41.015625
1737,-41.015625
1738,-42.968750
1739,-41.015625
1740,-41.015625
1741,-41.015625
1742,-41.015625
1743,-41.015625
1744,-41.015625
1745,-41.015625
1746,-44.921875
1747,-41.015625
1748,-42.968750
1749,-41.015625
1750,-41.015625
1751,-41.015625
1752,-41.015625
1753,-44.921875
1754,-41.015625
1755,-41.015625
1756,-41.015625
1757,-41.015625
1758,-42.968750
1759,-41.015625
1760,-41.015625
1761,-41.015625
1762,-44.921875
1763,-41.015625
1764,-44.921875
1765,-41.015625
1766,-44.921875
1767,-41.015625
1768,-46.875000
1769,-41.015625
1770,-41.015625
1771,-44.921875
1772,-41.015625
1773,-41.015625
1774,-41.015625
1775,-41.015625
1776,-44.921875
1777,-41.015625
1778,-41.015625
1779,-41.015625
1780,-41.015625
1781,-42.968750
1782,-44.921875
1783,-41.015625
1784,-44.921875
1785,-41.015625
1786,-41.015625
1787,-41.015625
1788,-41.015625
1789,-44.921875
1790,-41.015625
1791,-41.015625
1792,-44.921875
1793,-41.015625
1794,-41.015625
1795,-41.015625
1796,-44.921875
1797,-41.015625
1798,-44.921875
1799,-41.015625
1800,-41.015625
1801,-44.921875
1802,-41.015625
1803,-44.921875
1804,-41.015625
1805,-44.921875
1806,-42.968750
1807,-41.015625
1808,-42.968750
1809,-39.062500
1810,-41.015625
1811,-41.015625
1812,-41.015625
1813,-44.921875
1814,-44.921875
1815,-44.921875
1816,-42.968750
1817,-41.015625
1818,-44.921875
1819,-41.015625
1820,-41.015625
1821,-44.921875
1822,-41.015625
1823,-41.015625
1824,-41.015625
1825,-44.921875
1826,-41.015625
1827,-41.015625
1828,-42.968750
1829,-41.015625
1830,-41.015625
1831,-41.015625
1832,-41.015625
1833,-41.015625
1834,-41.015625
1835,-41.015625
1836,-41.015625
1837,-41.015625
1838,-41.015625
1839,-41.015625
1840,-41.015625
1841,-41.015625
1842,-41.015625
1843,-39.062500
1844,-44.921875
1845,-41.015625
1846,-44.921875
1847,-41.015625
1848,-44.921875
1849,-44.921875
1850,-41.015625
1851,-41.015625
1852,-41.015625
1853,-41.015625
1854,-42.968750
1855,-46.875000
1856,-41.015625
1857,-41.015625
1858,-41.015625
1859,-42.968750
1860,-41.015625
1861,-44.921875
1862,-41.015625
1863,-41.015625
1864,-44.921875
1865,-37.109375
1866,-42.968750
1867,-41.015625
1868,-41.015625
1869,-44.921875
1870,-39.062500
1871,-44.921875
1872,-41.015625
1873,-41.015625
1874,-41.015625
1875,-41.015625
1876,-42.968750
1877,-44.921875
1878,-41.015625
1879,-42.968750
1880,-41.015625
1881,-41.015625
1882,-44.921875
1883,-41.015625
1884,-41.015625
1885,-41.015625
1886,-46.875000
1887,-41.015625
1888,-41.015625
1889,-44.921875
1890,-23.437500
1891,-44.921875
1892,-41.015625
1893,-41.015625
1894,-42.968750
1895,-41.015625
1896,-44.921875
1897,-41.015625
1898,-42.968750
1899,-44.921875
1900,-41.015625
1901,-44.921875
1902,-41.015625
1903,-44.921875
1904,-44.921875
1905,-41.015625
1906,-41.015625
1907,-41.015625
1908,-42.968750
1909,-44.921875
1910,-41.015625
1911,-44.921875
1912,-41.015625
1913,-41.015625
1914,-41.015625
1915,-41.015625
1916,-39.062500
1917,-41.015625
1918,-41.015625
1919,-41.015625
1920,-39.062500
1921,-44.921875
1922,-35.156250
1923,-41.015625
1924,-41.015625
1925,-41.015625
1926,-41.015625
1927,-44.921875
1928,-42.968750
1929,-44.921875
1930,-41.015625
1931,-41.015625
1932,-44.921875
1933,-41.015625
1934,-41.015625
1935,-44.921875
1936,-41.015625
1937,-44.921875
1938,-41.015625
1939,-44.921875
1940,-41.015625
1941,-44.921875
1942,-41.015625
1943,-44.921875
1944,-44.921875
1945,-41.015625
1946,-41.015625
1947,-41.015625
1948,-42.968750
1949,-44.921875
1950,-41.015625
1951,-44.921875
1952,-41.015625
1953,-44.921875
1954,-41.015625
1955,-44.921875
1956,-41.015625
1957,-41.015625
1958,-44.921875
1959,-41.015625
1960,-44.921875
1961,-44.921875
1962,-41.015625
1963,-44.921875
1964,-44.921875
1965,-41.015625
1966,-44.921875
1967,-41.015625
1968,-44.921875
1969,-41.015625
1970,-41.015625
1971,-44.921875
1972,-41.015625
1973,-44.921875
1974,-41.015625
1975,-41.015625
1976,-41.015625
1977,-42.968750
1978,-41.015625
1979,-44.921875
1980,-41.015625
1981,-41.015625
1982,-44.921875
1983,-42.968750
1984,-44.921875
1985,-41.015625
1986,-41.015625
1987,-42.968750
1988,-41.015625
1989,-41.015625
1990,-42.968750
1991,-44.921875
1992,-41.015625
1993,-41.015625
1994,-46.875000
1995,-42.968750
1996,-44.921875
1997,-37.109375
1998,-42.968750
1999,-41.015625
2000,-41.015625
2001,-44.921875
2002,-41.015625
2003,-44.921875
2004,-44.921875
2005,-41.015625
2006,-42.968750
2007,-44.921875
2008,-41.015625
2009,-44.921875
2010,-42.968750
2011,-44.921875
2012,-42.968750
2013,-41.015625
2014,-44.921875
2015,-41.015625
2016,-42.968750
2017,-41.015625
2018,-41.015625
2019,-44.921875
2020,-41.015625
2021,-41.015625
2022,-44.921875
2023,-41.015625
2024,-44.921875
2025,-42.968750
2026,-42.968750
2027,-44.921875
2028,-41.015625
2029,-44.921875
2030,-41.015625
2031,-41.015625
2032,-44.921875
2033,-41.015625
2034,-41.015625
2035,-41.015625
2036,-41.015625
2037,-41.015625
2038,-41.015625
2039,-37.109375
2040,-44.921875
2041,-44.921875
2042,-44.921875
2043,-44.921875
2044,-37.109375
2045,-42.968750
2046,-44.921875
2047,-41.015625
2048,-41.015625
2049,-42.968750
2050,-41.015625
2051,-42.968750
2052,-42.968750
2053,-44.921875
2054,-44.921875
2055,-41.015625
2056,-41.015625
2057,-44.921875
2058,-41.015625
2059,-44.921875
2060,-42.968750
2061,-41.015625
2062,-46.875000
2063,-44.921875
2064,-44.921875
2065,-41.015625
2066,-41.015625
2067,-41.015625
2068,-41.015625
2069,-44.921875
2070,-41.015625
2071,-41.015625
2072,-44.921875
2073,-41.015625
2074,-41.015625
2075,-41.015625
2076,-41.015625
2077,-44.921875
2078,-41.015625
2079,-42.968750
2080,-39.062500
2081,-41.015625
2082,-44.921875
2083,-41.015625
2084,-44.921875
2085,-44.921875
2086,-44.921875
2087,-44.921875
2088,-44.921875
2089,-46.875000
2090,-44.921875
2091,-44.921875
2092,-46.875000
2093,-44.921875
2094,-46.875000
2095,-44.921875
2096,-48.828125
2097,-44.921875
2098,-44.921875
2099,-46.875000
2100,-44.921875
2101,-46.875000
2102,-48.828125
2103,-48.828125
2104,-52.734375
2105,-44.921875
2106,-44.921875
2107,-46.875000
2108,-44.921875
2109,-48.828125
2110,-44.921875
2111,-46.875000
2112,-46.875000
2113,-46.875000
2114,-46.875000
2115,-46.875000
2116,-46.875000
2117,-41.015625
2118,-46.875000
2119,-48.828125
2120,-46.875000
2121,-44.921875
2122,-46.875000
2123,-76.171875
2124,-46.875000
2125,-46.875000
2126,-48.828125
2127,-46.875000
2128,-48.828125
2129,-46.875000
2130,-50.781250
2131,-46.875000
2132,-46.875000
2133,-46.875000
2134,-54.687500
2135,-48.828125
2136,-46.875000
2137,-48.828125
2138,-46.875000
2139,-46.875000
2140,-44.921875
2141,-48.828125
2142,-46.875000
2143,-48.828125
2144,-50.781250
2145,-44.921875
2146,-46.875000
2147,-48.828125
2148,-46.875000
2149,-48.828125
2150,-48.828125
2151,-70.312500
2152,-48.828125
2153,-41.015625
2154,-50.781250
2155,-46.875000
2156,-48.828125
2157,-48.828125
2158,-48.828125
2159,-50.781250
2160,-46.875000
2161,-46.875000
2162,-48.828125
2163,-44.921875
2164,-52.734375
2165,-48.828125
2166,-48.828125
2167,-48.828125
2168,-46.875000
2169,-46.875000
2170,-46.875000
2171,-48.828125
2172,-48.828125
2173,-46.875000
2174,-48.828125
2175,-46.875000
2176,-48.828125
2177,-48.828125
2178,-46.875000
2179,-52.734375
2180,-48.828125
2181,-46.875000
2182,-50.781250
2183,-46.875000
2184,-48.828125
2185,-48.828125
2186,-48.828125
2187,-52.734375
2188,-46.875000
2189,-50.781250
2190,-48.828125
2191,-48.828125
2192,-48.828125
2193,-46.875000
2194,-50.781250
2195,-48.828125
2196,-48.828125
2197,-50.781250
2198,-48.828125
2199,-48.828125
2200,-48.828125
2201,-48.828125
2202,-46.875000
2203,-52.734375
2204,-50.781250
2205,-50.781250
2206,-56.640625
2207,-46.875000
2208,-39.062500
2209,-54.687500
2210,-48.828125
2211,-50.781250
2212,-48.828125
2213,-50.781250
2214,-50.781250
2215,-46.875000
2216,-50.781250
2217,-44.921875
2218,-52.734375
2219,-48.828125
2220,-50.781250
2221,-50.781250
2222,-48.828125
2223,-50.781250
2224,-48.828125
2225,-44.921875
2226,-52.734375
2227,-46.875000
2228,-48.828125
2229,-48.828125
2230,-48.828125
2231,-46.875000
2232,-48.828125
2233,-46.875000
2234,-48.828125
2235,-48.828125
2236,-48.828125
2237,-54.687500
2238,-48.828125
2239,-48.828125
2240,-48.828125
2241,-48.828125
2242,-48.828125
2243,-48.828125
2244,-48.828125
2245,-48.828125
2246,-48.828125
2247,-48.828125
2248,-52.734375
2249,-50.781250
2250,-48.828125
2251,-48.828125
2252,-48.828125
2253,-48.828125
2254,-50.781250
2255,-48.828125
2256,-48.828125
2257,-52.734375
2258,-46.875000
2259,-54.687500
2260,-48.828125
2261,-48.828125
2262,-50.781250
2263,-44.921875
2264,-50.781250
2265,-48.828125
2266,-50.781250
2267,-50.781250
2268,-46.875000
2269,-52.734375
2270,-48.828125
2271,-48.828125
2272,-48.828125
2273,-48.828125
2274,-48.828125
2275,-48.828125
2276,-48.828125
2277,-50.781250
2278,-48.828125
2279,-48.828125
2280,-48.828125
2281,-48.828125
2282,-50.781250
2283,-44.921875
2284,-48.828125
2285,-48.828125
2286,-44.921875
2287,-50.781250
2288,-31.250000
2289,-50.781250
2290,-48.828125
2291,-48.828125
2292,-46.875000
2293,-48.828125
2294,-48.828125
2295,-48.828125
2296,-48.828125
2297,-52.734375
2298,-48.828125
2299,-48.828125
2300,-50.781250
2301,-56.640625
2302,-44.921875
2303,-46.875000
2304,-48.828125
2305,-48.828125
2306,-48.828125
2307,-48.828125
2308,-48.828125
2309,-48.828125
2310,-56.640625
2311,-48.828125
2312,-48.828125
2313,-48.828125
2314,-48.828125
2315,-46.875000
2316,-48.828125
2317,-46.875000
2318,-37.109375
2319,-46.875000
2320,-44.921875
2321,-50.781250
2322,-48.828125
2323,-46.875000
2324,-46.875000
2325,-48.828125
2326,-48.828125
2327,-44.921875
2328,-46.875000
2329,-48.828125
2330,-46.875000
2331,-44.921875
2332,-50.781250
2333,-46.875000
2334,-48.828125
2335,-44.921875
2336,-48.828125
2337,-48.828125
2338,-48.828125
2339,-48.828125
2340,-48.828125
2341,-48.828125
2342,-52.734375
2343,-46.875000
2344,-48.828125
2345,-44.921875
2346,-50.781250
2347,-46.875000
2348,-48.828125
2349,-48.828125
2350,-46.875000
2351,-48.828125
2352,-48.828125
2353,-44.921875
2354,-48.828125
2355,-48.828125
2356,-46.875000
2357,-48.828125
2358,-48.828125
2359,-48.828125
2360,-46.875000
2361,-48.828125
2362,-44.921875
2363,-48.828125
2364,-48.828125
2365,-44.921875
2366,-46.875000
2367,-50.781250
2368,-48.828125
2369,-48.828125
2370,-48.828125
2371,-48.828125
2372,-46.875000
2373,-46.875000
2374,-46.875000
2375,-50.781250
2376,-48.828125
2377,-48.828125
2378,-50.781250
2379,-46.875000
2380,-48.828125
2381,-42.968750
2382,-48.828125
2383,-44.921875
2384,-46.875000
2385,-48.828125
2386,-46.875000
2387,-48.828125
2388,-46.875000
2389,-50.781250
2390,-46.875000
2391,-48.828125
2392,-48.828125
2393,-46.875000
2394,-48.828125
2395,-46.875000
2396,-48.828125
2397,-48.828125
2398,-48.828125
2399,-48.828125
2400,-50.781250
2401,-46.875000
2402,-48.828125
2403,-48.828125
2404,-54.687500
2405,-48.828125
2406,-48.828125
2407,-50.781250
2408,-44.921875
2409,-48.828125
2410,-48.828125
2411,-48.828125
2412,-48.828125
2413,-48.828125
2414,-52.734375
2415,-48.828125
2416,-48.828125
2417,-52.734375
2418,-48.828125
2419,-48.828125
2420,-50.781250
2421,-46.875000
2422,-50.781250
2423,-48.828125
2424,-48.828125
2425,-48.828125
2426,-46.875000
2427,-48.828125
2428,-50.781250
2429,-46.875000
2430,-48.828125
2431,-46.875000
2432,-50.781250
2433,-54.687500
2434,-46.875000
2435,-48.828125
2436,-48.828125
2437,-48.828125
2438,-48.828125
2439,-48.828125
2440,-48.828125
2441,-46.875000
2442,-46.875000
2443,-48.828125
2444,-48.828125
2445,-48.828125
2446,-48.828125
2447,-50.781250
2448,-48.828125
2449,-50.781250
2450,-48.828125
2451,-48.828125
2452,-48.828125
2453,-50.781250
2454,-50.781250
2455,-48.828125
2456,-50.781250
2457,-46.875000
2458,-48.828125
2459,-50.781250
2460,-48.828125
2461,-50.781250
2462,-48.828125
2463,-48.828125
2464,-48.828125
2465,-48.828125
2466,-52.734375
2467,-46.875000
2468,-52.734375
2469,-52.734375
2470,-50.781250
2471,-52.734375
2472,-46.875000
2473,-52.734375
2474,-48.828125
2475,-48.828125
2476,-52.734375
2477,-52.734375
2478,-48.828125
2479,-50.781250
2480,-48.828125
2481,-52.734375
2482,-52.734375
2483,-48.828125
2484,-50.781250
2485,-48.828125
2486,-48.828125
2487,-50.781250
2488,-50.781250
2489,-54.687500
2490,-50.781250
2491,-50.781250
2492,-48.828125
2493,-48.828125
2494,-52.734375
2495,-48.828125
2496,-50.781250
2497,-48.828125
2498,-52.734375
2499,-50.781250
2500,-50.781250
2501,-52.734375
2502,-50.781250
2503,-48.828125
2504,-52.734375
2505,-48.828125
2506,-48.828125
2507,-54.687500
2508,-52.734375
2509,-54.687500
2510,-48.828125
2511,-50.781250
2512,-50.781250
2513,-48.828125
2514,-52.734375
2515,-50.781250
2516,-54.687500
2517,-50.781250
2518,-50.781250
2519,-52.734375
2520,-50.781250
2521,-52.734375
2522,-48.828125
2523,-50.781250
2524,-52.734375
2525,-52.734375
2526,-52.734375
2527,-52.734375
2528,-52.734375
2529,-50.781250
2530,-46.875000
2531,-52.734375
2532,-52.734375
2533,-50.781250
2534,-50.781250
2535,-48.828125
2536,-52.734375
2537,-54.687500
2538,-48.828125
2539,-50.781250
2540,-48.828125
2541,-54.687500
2542,-50.781250
2543,-48.828125
2544,-52.734375
2545,-48.828125
2546,-52.734375
2547,-48.828125
2548,-50.781250
2549,-50.781250
2550,-44.921875
2551,-52.734375
2552,-52.734375
2553,-50.781250
2554,-54.687500
2555,-50.781250
2556,-52.734375
2557,-56.640625
2558,-50.781250
2559,-54.687500
2560,-52.734375
2561,-48.828125
2562,-50.781250
2563,-48.828125
2564,-50.781250
2565,-48.828125
2566,-48.828125
2567,-48.828125
2568,-39.062500
2569,-52.734375
2570,-50.781250
2571,-48.828125
2572,-52.734375
2573,-48.828125
2574,-50.781250
2575,-50.781250
2576,-48.828125
2577,-54.687500
2578,-48.828125
2579,-48.828125
2580,-52.734375
2581,-48.828125
2582,-52.734375
2583,-48.828125
2584,-50.781250
2585,-50.781250
2586,-52.734375
2587,-54.687500
2588,-46.875000
2589,-50.781250
2590,-48.828125
2591,-50.781250
2592,-54.687500
2593,-48.828125
2594,-52.734375
2595,-50.781250
2596,-48.828125
2597,-50.781250
2598,-50.781250
2599,-50.781250
2600,-52.734375
2601,-48.828125
2602,-52.734375
2603,-48.828125
2604,-52.734375
2605,-50.781250
2606,-48.828125
2607,-54.687500
2608,-48.828125
2609,-56.640625
2610,-50.781250
2611,-48.828125
2612,-50.781250
2613,-48.828125
2614,-44.921875
2615,-50.781250
2616,-48.828125
2617,-50.781250
2618,-48.828125
2619,-48.828125
2620,-54.687500
2621,-46.875000
2622,-52.734375
2623,-50.781250
2624,-48.828125
2625,-52.734375
2626,-48.828125
2627,-50.781250
2628,-46.875000
2629,-48.828125
2630,-48.828125
2631,-48.828125
2632,-50.781250
2633,-48.828125
2634,-46.875000
2635,-54.687500
2636,-50.781250
2637,-48.828125
2638,-50.781250
2639,-52.734375
2640,-50.781250
2641,-50.781250
2642,-48.828125
2643,-48.828125
2644,-50.781250
2645,-50.781250
2646,-48.828125
2647,-48.828125
2648,-50.781250
2649,-48.828125
2650,-50.781250
2651,-46.875000
2652,-48.828125
2653,-48.828125
2654,-48.828125
2655,-50.781250
2656,-48.828125
2657,-52.734375
2658,-50.781250
2659,-48.828125
2660,-50.781250
2661,-46.875000
2662,-46.875000
2663,-50.781250
2664,-46.875000
2665,-48.828125
2666,-60.546875
2667,-48.828125
2668,-48.828125
2669,-44.921875
2670,-52.734375
2671,-46.875000
2672,-48.828125
2673,-48.828125
2674,-44.921875
2675,-46.875000
2676,-46.875000
2677,-48.828125
2678,-50.781250
2679,-44.921875
2680,-50.781250
2681,-48.828125
2682,-46.875000
2683,-46.875000
2684,-46.875000
2685,-48.828125
2686,-48.828125
2687,-46.875000
2688,-48.828125
2689,-44.921875
2690,-46.875000
2691,-46.875000
2692,-48.828125
2693,-46.875000
2694,-44.921875
2695,-48.828125
2696,-46.875000
2697,-48.828125
2698,-46.875000
2699,-42.968750
2700,-46.875000
2701,-46.875000
2702,-48.828125
2703,-44.921875
2704,-46.875000
2705,-46.875000
2706,-44.921875
2707,-48.828125
2708,-48.828125
2709,-48.828125
2710,-48.828125
2711,-44.921875
2712,-48.828125
2713,-46.875000
2714,-48.828125
2715,-48.828125
2716,-44.921875
2717,-48.828125
2718,-46.875000
2719,-48.828125
2720,-48.828125
2721,-46.875000
2722,-48.828125
2723,-44.921875
2724,-44.921875
2725,-50.781250
2726,-44.921875
2727,-48.828125
2728,-46.875000
2729,-46.875000
2730,-46.875000
2731,-48.828125
2732,-46.875000
2733,-48.828125
2734,-46.875000
2735,-48.828125
2736,-46.875000
2737,-46.875000
2738,-46.875000
2739,-46.875000
2740,-46.875000
2741,-50.781250
2742,-46.875000
2743,-46.875000
2744,-46.875000
2745,-48.828125
2746,-48.828125
2747,-50.781250
2748,-48.828125
2749,-48.828125
2750,-48.828125
2751,-50.781250
2752,-48.828125
2753,-48.828125
2754,-46.875000
2755,-48.828125
2756,-48.828125
2757,-52.734375
2758,-48.828125
2759,-46.875000
2760,-48.828125
2761,-46.875000
2762,-48.828125
2763,-48.828125
2764,-48.828125
2765,-44.921875
2766,-46.875000
2767,-44.921875
2768,-48.828125
2769,-44.921875
2770,-44.921875
2771,-46.875000
2772,-50.781250
2773,-44.921875
2774,-48.828125
2775,-42.968750
2776,-48.828125
2777,-44.921875
2778,-44.921875
2779,-46.875000
2780,-44.921875
2781,-46.875000
2782,-44.921875
2783,-44.921875
2784,-46.875000
2785,-44.921875
2786,-48.828125
2787,-44.921875
2788,-44.921875
2789,-50.781250
2790,-44.921875
2791,-44.921875
2792,-46.875000
2793,-44.921875
2794,-46.875000
2795,-44.921875
2796,-44.921875
2797,-44.921875
2798,-46.875000
2799,-46.875000
2800,-44.921875
2801,-46.875000
2802,-44.921875
2803,-44.921875
2804,-48.828125
2805,-42.968750
2806,-44.921875
2807,-44.921875
2808,-48.828125
2809,-46.875000
2810,-44.921875
2811,-46.875000
2812,-44.921875
2813,-44.921875
2814,-46.875000
2815,-44.921875
2816,-44.921875
2817,-44.921875
2818,-41.015625
2819,-44.921875
2820,-44.921875
2821,-44.921875
2822,-46.875000
2823,-44.921875
2824,-44.921875
2825,-44.921875
2826,-44.921875
2827,-46.875000
2828,-44.921875
2829,-44.921875
2830,-44.921875
2831,-44.921875
2832,-46.875000
2833,-42.968750
2834,-44.921875
2835,-44.921875
2836,-44.921875
2837,-44.921875
2838,-44.921875
2839,-44.921875
2840,-44.921875
2841,-44.921875
2842,-44.921875
2843,-44.921875
2844,-44.921875
2845,-44.921875
2846,-44.921875
2847,-44.921875
2848,-44.921875
2849,-48.828125
2850,-44.921875
2851,-46.875000
2852,-48.828125
2853,-33.203125
2854,-50.781250
2855,-44.921875
2856,-44.921875
2857,-44.921875
2858,-44.921875
2859,-44.921875
2860,-44.921875
2861,-44.921875
2862,-50.781250
2863,-41.015625
2864,-44.921875
2865,-44.921875
2866,-44.921875
2867,-46.875000
2868,-44.921875
2869,-44.921875
2870,-44.921875
2871,-44.921875
2872,-44.921875
2873,-44.921875
2874,-44.921875
2875,-44.921875
2876,-44.921875
2877,-44.921875
2878,-44.921875
2879,-46.875000
2880,-44.921875
2881,-41.015625
2882,-42.968750
2883,-44.921875
2884,-44.921875
2885,-44.921875
2886,-44.921875
2887,-46.875000
2888,-44.921875
2889,-44.921875
2890,-44.921875
2891,-44.921875
2892,-46.875000
2893,-44.921875
2894,-46.875000
2895,-44.921875
2896,-46.875000
2897,-46.875000
2898,-44.921875
2899,-46.875000
2900,-44.921875
2901,-44.921875
2902,-44.921875
2903,-44.921875
2904,-44.921875
2905,-44.921875
2906,-44.921875
2907,-46.875000
2908,-44.921875
2909,-44.921875
2910,-44.921875
2911,-42.968750
2912,-46.875000
2913,-44.921875
2914,-44.921875
2915,-44.921875
2916,-44.921875
2917,-46.875000
2918,-44.921875
2919,-44.921875
2920,-44.921875
2921,-44.921875
2922,-46.875000
2923,-41.015625
2924,-44.921875
2925,-44.921875
2926,-42.968750
2927,-44.921875
2928,-44.921875
2929,-44.921875
2930,-44.921875
2931,-44.921875
2932,-44.921875
2933,-44.921875
2934,-44.921875
2935,-42.968750
2936,-42.968750
2937,-44.921875
2938,-41.015625
2939,-44.921875
2940,-44.921875
2941,-41.015625
2942,-44.921875
2943,-44.921875
2944,-44.921875
2945,-44.921875
2946,-44.921875
2947,-44.921875
2948,-44.921875
2949,-44.921875
2950,-44.921875
2951,-42.968750
2952,-48.828125
2953,-44.921875
2954,-44.921875
2955,-44.921875
2956,-44.921875
2957,-44.921875
2958,-41.015625
2959,-46.875000
2960,-41.015625
2961,-44.921875
2962,-44.921875
2963,-41.015625
2964,-44.921875
2965,-44.921875
2966,-44.921875
2967,-44.921875
2968,-44.921875
2969,-41.015625
2970,-44.921875
2971,-44.921875
2972,-44.921875
2973,-44.921875
2974,-42.968750
2975,-44.921875
2976,-41.015625
2977,-44.921875
2978,-44.921875
2979,-41.015625
2980,-44.921875
2981,-44.921875
2982,-41.015625
2983,-46.875000
2984,-41.015625
2985,-44.921875
2986,-41.015625
2987,-41.015625
2988,-44.921875
2989,-44.921875
2990,-44.921875
2991,-44.921875
2992,-41.015625
2993,-46.875000
2994,-41.015625
2995,-44.921875
2996,-41.015625
2997,-42.968750
2998,-44.921875
2999,-44.921875
3000,-46.875000
3001,-46.875000
3002,-42.968750
3003,-46.875000
3004,-42.968750
3005,-44.921875
3006,-44.921875
3007,-33.203125
3008,-44.921875
3009,-44.921875
3010,-41.015625
3011,-46.875000
3012,-44.921875
3013,-46.875000
3014,-44.921875
3015,-44.921875
3016,-44.921875
3017,-44.921875
3018,-44.921875
3019,-42.968750
3020,-50.781250
3021,-46.875000
3022,-42.968750
3023,-44.921875
3024,-44.921875
3025,-41.015625
3026,-44.921875
3027,-44.921875
3028,-44.921875
3029,-41.015625
3030,-41.015625
3031,-44.921875
3032,-44.921875
3033,-44.921875
3034,-44.921875
3035,-42.968750
3036,-44.921875
3037,-42.968750
3038,-46.875000
3039,-44.921875
3040,-44.921875
3041,-44.921875
3042,-44.921875
3043,-46.875000
3044,-44.921875
3045,-44.921875
3046,-44.921875
3047,-44.921875
3048,-44.921875
3049,-44.921875
3050,-41.015625
3051,-44.921875
3052,-42.968750
3053,-44.921875
3054,-44.921875
3055,-42.968750
3056,-46.875000
3057,-42.968750
3058,-44.921875
3059,-44.921875
3060,-44.921875
3061,-46.875000
3062,-44.921875
3063,-44.921875
3064,-44.921875
3065,-44.921875
3066,-44.921875
3067,-44.921875
3068,-44.921875
3069,-46.875000
3070,-44.921875
3071,-44.921875
3072,-44.921875
3073,-44.921875
3074,-44.921875
3075,-41.015625
3076,-44.921875
3077,-46.875000
3078,-41.015625
3079,-44.921875
3080,-44.921875
3081,-44.921875
3082,-44.921875
3083,-42.968750
3084,-44.921875
3085,-42.968750
3086,-44.921875
3087,-44.921875
3088,-44.921875
3089,-41.015625
3090,-42.968750
3091,-44.921875
3092,-46.875000
3093,-44.921875
3094,-48.828125
3095,-44.921875
3096,-44.921875
3097,-44.921875
3098,-44.921875
3099,-44.921875
3100,-44.921875
3101,-44.921875
3102,-44.921875
3103,-44.921875
3104,-44.921875
3105,-44.921875
3106,-44.921875
3107,-44.921875
3108,-42.968750
3109,-44.921875
3110,-44.921875
3111,-44.921875
3112,-44.921875
3113,-41.015625
3114,-44.921875
3115,-44.921875
3116,-41.015625
3117,-46.875000
3118,-41.015625
3119,-44.921875
3120,-44.921875
3121,-42.968750
3122,-46.875000
3123,-39.062500
3124,-46.875000
3125,-44.921875
3126,-44.921875
3127,-44.921875
3128,-44.921875
3129,-44.921875
3130,-44.921875
3131,-44.921875
3132,-44.921875
3133,-48.828125
3134,-44.921875
3135,-44.921875
3136,-41.015625
3137,-44.921875
3138,-44.921875
3139,-44.921875
3140,-46.875000
3141,-41.015625
3142,-46.875000
3143,-41.015625
3144,-44.921875
3145,-44.921875
3146,-41.015625
3147,-44.921875
3148,-41.015625
3149,-46.875000
3150,-44.921875
3151,-44.921875
3152,-44.921875
3153,-44.921875
3154,-44.921875
3155,-52.734375
3156,-44.921875
3157,-44.921875
3158,-44.921875
3159,-44.921875
3160,-44.921875
3161,-42.968750
3162,-44.921875
3163,-44.921875
3164,-44.921875
3165,-44.921875
3166,-44.921875
3167,-46.875000
3168,-44.921875
3169,-44.921875
3170,-48.828125
3171,-44.921875
3172,-46.875000
3173,-44.921875
3174,-46.875000
3175,-44.921875
3176,-44.921875
3177,-46.875000
3178,-44.921875
3179,-44.921875
3180,-46.875000
3181,-44.921875
3182,-46.875000
3183,-41.015625
3184,-44.921875
3185,-44.921875
3186,-46.875000
3187,-50.781250
3188,-46.875000
3189,-44.921875
3190,-48.828125
3191,-44.921875
3192,-46.875000
3193,-44.921875
3194,-46.875000
3195,-41.015625
3196,-46.875000
3197,-44.921875
3198,-46.875000
3199,-44.921875
3200,-50.781250
3201,-44.921875
3202,-46.875000
3203,-42.968750
3204,-48.828125
3205,-46.875000
3206,-48.828125
3207,-46.875000
3208,-44.921875
3209,-46.875000
3210,-44.921875
3211,-44.921875
3212,-46.875000
3213,-44.921875
3214,-44.921875
3215,-46.875000
3216,-44.921875
3217,-46.875000
3218,-41.015625
3219,-44.921875
3220,-44.921875
3221,-44.921875
3222,-44.921875
3223,-44.921875
3224,-44.921875
3225,-46.875000
3226,-41.015625
3227,-44.921875
3228,-44.921875
3229,-44.921875
3230,-46.875000
3231,-44.921875
3232,-44.921875
3233,-46.875000
3234,-44.921875
3235,-46.875000
3236,-46.875000
3237,-46.875000
3238,-44.921875
3239,-44.921875
3240,-48.828125
3241,-46.875000
3242,-46.875000
3243,-46.875000
3244,-46.875000
3245,-48.828125
3246,-48.828125
3247,-46.875000
3248,-50.781250
3249,-48.828125
3250,-46.875000
3251,-48.828125
3252,-46.875000
3253,-50.781250
3254,-46.875000
3255,-48.828125
3256,-50.781250
3257,-48.828125
3258,-48.828125
3259,-48.828125
3260,-48.828125
3261,-48.828125
3262,-48.828125
3263,-48.828125
3264,-54.687500
3265,-50.781250
3266,-48.828125
3267,-46.875000
3268,-48.828125
3269,-48.828125
3270,-48.828125
3271,-48.828125
3272,-46.875000
3273,-50.781250
3274,-44.921875
3275,-48.828125
3276,-48.828125
3277,-48.828125
3278,-50.781250
3279,-46.875000
3280,-50.781250
3281,-48.828125
3282,-48.828125
3283,-50.781250
3284,-48.828125
3285,-48.828125
3286,-54.687500
3287,-50.781250
3288,-48.828125
3289,-48.828125
3290,-48.828125
3291,-52.734375
3292,-48.828125
3293,-52.734375
3294,-54.687500
3295,-50.781250
3296,-50.781250
3297,-48.828125
3298,-50.781250
3299,-46.875000
3300,-50.781250
3301,-48.828125
3302,-48.828125
3303,-48.828125
3304,-46.875000
3305,-52.734375
3306,-48.828125
3307,-52.734375
3308,-48.828125
3309,-48.828125
3310,-48.828125
3311,-48.828125
3312,-46.875000
3313,-48.828125
3314,-50.781250
3315,-48.828125
3316,-50.781250
3317,-48.828125
3318,-48.828125
3319,-48.828125
3320,-50.781250
3321,-48.828125
3322,-48.828125
3323,-50.781250
3324,-46.875000
3325,-48.828125
3326,-50.781250
3327,-46.875000
3328,-48.828125
3329,-48.828125
3330,-50.781250
3331,-48.828125
3332,-48.828125
3333,-52.734375
3334,-50.781250
3335,-48.828125
3336,-52.734375
3337,-48.828125
3338,-48.828125
3339,-48.828125
3340,-48.828125
3341,-62.500000
3342,-48.828125
3343,-52.734375
3344,-50.781250
3345,-48.828125
3346,-52.734375
3347,-48.828125
3348,-48.828125
3349,-48.828125
3350,-48.828125
3351,-50.781250
3352,-48.828125
3353,-52.734375
3354,-48.828125
3355,-48.828125
3356,-50.781250
3357,-48.828125
3358,-48.828125
3359,-48.828125
3360,-52.734375
3361,-50.781250
3362,-50.781250
3363,-48.828125
3364,-50.781250
3365,-48.828125
3366,-52.734375
3367,-46.875000
3368,-50.781250
3369,-50.781250
3370,-48.828125
3371,-56.640625
3372,-48.828125
3373,-48.828125
3374,-48.828125
3375,-48.828125
3376,-48.828125
3377,-48.828125
3378,-48.828125
3379,-48.828125
3380,-46.875000
3381,-48.828125
3382,-48.828125
3383,-50.781250
3384,-50.781250
3385,-48.828125
3386,-48.828125
3387,-48.828125
3388,-50.781250
3389,-48.828125
3390,-44.921875
3391,-52.734375
3392,-48.828125
3393,-50.781250
3394,-50.781250
3395,-48.828125
3396,-52.734375
3397,-50.781250
3398,-54.687500
3399,-52.734375
3400,-48.828125
3401,-64.453125
3402,-48.828125
3403,-54.687500
3404,-50.781250
3405,-48.828125
3406,-52.734375
3407,-48.828125
3408,-50.781250
3409,-50.781250
3410,-48.828125
3411,-50.781250
3412,-50.781250
3413,-52.734375
3414,-52.734375
3415,-50.781250
3416,-54.687500
3417,-48.828125
3418,-48.828125
3419,-56.640625
3420,-48.828125
3421,-54.687500
3422,-50.781250
3423,-50.781250
3424,-50.781250
3425,-48.828125
3426,-52.734375
3427,-52.734375
3428,-52.734375
3429,-52.734375
3430,-48.828125
3431,-48.828125
3432,-48.828125
3433,-50.781250
3434,-52.734375
3435,-48.828125
3436,-50.781250
3437,-50.781250
3438,-50.781250
3439,-50.781250
3440,-54.687500
3441,-54.687500
3442,-48.828125
3443,-50.781250
3444,-52.734375
3445,-50.781250
3446,-52.734375
3447,-48.828125
3448,-54.687500
3449,-52.734375
3450,-52.734375
3451,-54.687500
3452,-52.734375
3453,-48.828125
3454,-50.781250
3455,-54.687500
3456,-48.828125
3457,-54.687500
3458,-52.734375
3459,-50.781250
3460,-54.687500
3461,-48.828125
3462,-54.687500
3463,-50.781250
3464,-52.734375
3465,-50.781250
3466,-48.828125
3467,-52.734375
3468,-52.734375
3469,-48.828125
3470,-56.640625
3471,-52.734375
3472,-52.734375
3473,-52.734375
3474,-46.875000
3475,-54.687500
3476,-48.828125
3477,-52.734375
3478,-54.687500
3479,-48.828125
3480,-50.781250
3481,-52.734375
3482,-50.781250
3483,-48.828125
3484,-50.781250
3485,-52.734375
3486,-52.734375
3487,-50.781250
3488,-50.781250
3489,-48.828125
3490,-52.734375
3491,-46.875000
3492,-52.734375
3493,-50.781250
3494,-48.828125
3495,-52.734375
3496,-48.828125
3497,-50.781250
3498,-50.781250
3499,-52.734375
3500,-48.828125
3501,-52.734375
3502,-44.921875
3503,-50.781250
3504,-48.828125
3505,-52.734375
3506,-52.734375
3507,-54.687500
3508,-52.734375
3509,-48.828125
3510,-48.828125
3511,-50.781250
3512,-48.828125
3513,-54.687500
3514,-48.828125
3515,-56.640625
3516,-50.781250
3517,-48.828125
3518,-48.828125
3519,-50.781250
3520,-52.734375
3521,-48.828125
3522,-52.734375
3523,-52.734375
3524,-52.734375
3525,-50.781250
3526,-54.687500
3527,-52.734375
3528,-52.734375
3529,-50.781250
3530,-52.734375
3531,-50.781250
3532,-50.781250
3533,-54.687500
3534,-52.734375
3535,-52.734375
3536,-50.781250
3537,-48.828125
3538,-56.640625
3539,-48.828125
3540,-52.734375
3541,-52.734375
3542,-52.734375
3543,-48.828125
3544,-50.781250
3545,-52.734375
3546,-48.828125
3547,-56.640625
3548,-54.687500
3549,-52.734375
3550,-52.734375
3551,-52.734375
3552,-54.687500
3553,-52.734375
3554,-54.687500
3555,-54.687500
3556,-50.781250
3557,-52.734375
3558,-54.687500
3559,-54.687500
3560,-54.687500
3561,-50.781250
3562,-52.734375
3563,-48.828125
3564,-48.828125
3565,-54.687500
3566,-48.828125
3567,-52.734375
3568,-52.734375
3569,-48.828125
3570,-54.687500
3571,-48.828125
3572,-54.687500
3573,-50.781250
3574,-50.781250
3575,-54.687500
3576,-52.734375
3577,-52.734375
3578,-50.781250
3579,-52.734375
3580,-54.687500
3581,-50.781250
3582,-50.781250
3583,-54.687500
3584,-50.781250
3585,-54.687500
3586,-54.687500
3587,-50.781250
3588,-54.687500
3589,-52.734375
3590,-54.687500
3591,-52.734375
3592,-54.687500
3593,-54.687500
3594,-52.734375
3595,-56.640625
3596,-50.781250
3597,-54.687500
3598,-54.687500
3599,-56.640625
3600,-54.687500
3601,-52.734375
3602,-56.640625
3603,-52.734375
3604,-54.687500
3605,-54.687500
3606,-52.734375
3607,-56.640625
3608,-52.734375
3609,-52.734375
3610,-52.734375
3611,-52.734375
3612,-54.687500
3613,-54.687500
3614,-48.828125
3615,-56.640625
3616,-54.687500
3617,-50.781250
3618,-54.687500
3619,-50.781250
3620,-56.640625
3621,-50.781250
3622,-54.687500
3623,-54.687500
3624,-54.687500
3625,-54.687500
3626,-54.687500
3627,-52.734375
3628,-54.687500
3629,-52.734375
3630,-50.781250
3631,-54.687500
3632,-52.734375
3633,-50.781250
3634,-54.687500
3635,-54.687500
3636,-54.687500
3637,-60.546875
3638,-52.734375
3639,-52.734375
3640,-60.546875
3641,-52.734375
3642,-54.687500
3643,-54.687500
3644,-52.734375
3645,-56.640625
3646,-54.687500
3647,-56.640625
3648,-52.734375
3649,-54.687500
3650,-54.687500
3651,-54.687500
3652,-54.687500
3653,-50.781250
3654,-54.687500
3655,-52.734375
3656,-50.781250
3657,-54.687500
3658,-52.734375
3659,-52.734375
3660,-52.734375
3661,-54.687500
3662,-48.828125
3663,-54.687500
3664,-50.781250
3665,-56.640625
3666,-54.687500
3667,-52.734375
3668,-56.640625
3669,-50.781250
3670,-54.687500
3671,-60.546875
3672,-50.781250
3673,-50.781250
3674,-52.734375
3675,-52.734375
3676,-56.640625
3677,-54.687500
3678,-54.687500
3679,-52.734375
3680,-50.781250
3681,-52.734375
3682,-54.687500
3683,-52.734375
3684,-50.781250
3685,-54.687500
3686,-54.687500
3687,-50.781250
3688,-54.687500
3689,-50.781250
3690,-52.734375
3691,-54.687500
3692,-54.687500
3693,-56.640625
3694,-48.828125
3695,-54.687500
3696,-50.781250
3697,-52.734375
3698,-54.687500
3699,-54.687500
3700,-54.687500
3701,-50.781250
3702,-52.734375
3703,-52.734375
3704,-54.687500
3705,-52.734375
3706,-48.828125
3707,-56.640625
3708,-50.781250
3709,-56.640625
3710,-52.734375
3711,-50.781250
3712,-56.640625
3713,-50.781250
3714,-52.734375
3715,-54.687500
3716,-48.828125
3717,-54.687500
3718,-41.015625
3719,-50.781250
3720,-48.828125
3721,-48.828125
3722,-56.640625
3723,-48.828125
3724,-52.734375
3725,-52.734375
3726,-48.828125
3727,-54.687500
3728,-52.734375
3729,-52.734375
3730,-52.734375
3731,-50.781250
3732,-50.781250
3733,-52.734375
3734,-48.828125
3735,-52.734375
3736,-52.734375
3737,-48.828125
3738,-54.687500
3739,-52.734375
3740,-52.734375
3741,-48.828125
3742,-52.734375
3743,-52.734375
3744,-48.828125
3745,-54.687500
3746,-52.734375
3747,-52.734375
3748,-60.546875
3749,-52.734375
3750,-52.734375
3751,-52.734375
3752,-52.734375
3753,-52.734375
3754,-50.781250
3755,-50.781250
3756,-52.734375
3757,-52.734375
3758,-52.734375
3759,-52.734375
3760,-52.734375
3761,-50.781250
3762,-50.781250
3763,-52.734375
3764,-50.781250
3765,-54.687500
3766,-52.734375
3767,-48.828125
3768,-52.734375
3769,-50.781250
3770,-52.734375
3771,-54.687500
3772,-48.828125
3773,-50.781250
3774,-48.828125
3775,-50.781250
3776,-48.828125
3777,-48.828125
3778,-52.734375
3779,-50.781250
3780,-50.781250
3781,-52.734375
3782,-48.828125
3783,-56.640625
3784,-50.781250
3785,-48.828125
3786,-54.687500
3787,-48.828125
3788,-54.687500
3789,-48.828125
3790,-54.687500
3791,-48.828125
3792,-48.828125
3793,-54.687500
3794,-48.828125
3795,-52.734375
3796,-48.828125
3797,-50.781250
3798,-48.828125
3799,-48.828125
3800,-48.828125
3801,-48.828125
3802,-48.828125
3803,-52.734375
3804,-48.828125
3805,-50.781250
3806,-50.781250
3807,-48.828125
3808,-50.781250
3809,-48.828125
3810,-48.828125
3811,-54.687500
3812,-48.828125
3813,-52.734375
3814,-48.828125
3815,-48.828125
3816,-52.734375
3817,-48.828125
3818,-50.781250
3819,-48.828125
3820,-52.734375
3821,-37.109375
3822,-52.734375
3823,-50.781250
3824,-48.828125
3825,-50.781250
3826,-52.734375
3827,-48.828125
3828,-50.781250
3829,-48.828125
3830,-50.781250
3831,-50.781250
3832,-48.828125
3833,-48.828125
3834,-56.640625
3835,-52.734375
3836,-50.781250
3837,-48.828125
3838,-52.734375
3839,-50.781250
3840,-50.781250
3841,-52.734375
3842,-48.828125
3843,-52.734375
3844,-50.781250
3845,-50.781250
3846,-48.828125
3847,-48.828125
3848,-50.781250
3849,-50.781250
3850,-50.781250
3851,-56.640625
3852,-48.828125
3853,-52.734375
3854,-52.734375
3855,-52.734375
3856,-50.781250
3857,-48.828125
3858,-50.781250
3859,-50.781250
3860,-50.781250
3861,-56.640625
3862,-48.828125
3863,-50.781250
3864,-48.828125
3865,-50.781250
3866,-52.734375
3867,-48.828125
3868,-50.781250
3869,-48.828125
3870,-50.781250
3871,-50.781250
3872,-48.828125
3873,-48.828125
3874,-50.781250
3875,-46.875000
3876,-50.781250
3877,-54.687500
3878,-48.828125
3879,-48.828125
3880,-48.828125
3881,-48.828125
3882,-48.828125
3883,-50.781250
3884,-50.781250
3885,-50.781250
3886,-52.734375
3887,-46.875000
3888,-50.781250
3889,-48.828125
3890,-52.734375
3891,-52.734375
3892,-48.828125
3893,-48.828125
3894,-37.109375
3895,-50.781250
3896,-48.828125
3897,-48.828125
3898,-48.828125
3899,-48.828125
3900,-52.734375
3901,-48.828125
3902,-48.828125
3903,-50.781250
3904,-48.828125
3905,-50.781250
3906,-52.734375
3907,-48.828125
3908,-50.781250
3909,-52.734375
3910,-50.781250
3911,-52.734375
3912,-46.875000
3913,-52.734375
3914,-46.875000
3915,-48.828125
3916,-46.875000
3917,-46.875000
3918,-50.781250
3919,-48.828125
3920,-50.781250
3921,-48.828125
3922,-48.828125
3923,-48.828125
3924,-52.734375
3925,-48.828125
3926,-50.781250
3927,-46.875000
3928,-48.828125
3929,-48.828125
3930,-48.828125
3931,-50.781250
3932,-48.828125
3933,-52.734375
3934,-48.828125
3935,-46.875000
3936,-48.828125
3937,-48.828125
3938,-52.734375
3939,-48.828125
3940,-48.828125
3941,-48.828125
3942,-48.828125
3943,-48.828125
3944,-48.828125
3945,-50.781250
3946,-48.828125
3947,-48.828125
3948,-48.828125
3949,-48.828125
3950,-52.734375
3951,-48.828125
3952,-54.687500
3953,-48.828125
3954,-48.828125
3955,-48.828125
3956,-48.828125
3957,-48.828125
3958,-48.828125
3959,-48.828125
3960,-50.781250
3961,-44.921875
3962,-50.781250
3963,-52.734375
3964,-46.875000
3965,-52.734375
3966,-48.828125
3967,-50.781250
3968,-48.828125
3969,-44.921875
3970,-50.781250
3971,-48.828125
3972,-48.828125
3973,-48.828125
3974,-48.828125
3975,-48.828125
3976,-48.828125
3977,-48.828125
3978,-46.875000
3979,-52.734375
3980,-48.828125
3981,-48.828125
3982,-48.828125
3983,-48.828125
3984,-48.828125
3985,-46.875000
3986,-48.828125
3987,-48.828125
3988,-50.781250
3989,-48.828125
3990,-54.687500
3991,-50.781250
3992,-46.875000
3993,-48.828125
3994,-48.828125
3995,-48.828125
3996,-50.781250
3997,-46.875000
3998,-50.781250
3999,-48.828125
4000,-46.875000
4001,-48.828125
4002,-48.828125
4003,-52.734375
4004,-48.828125
4005,-48.828125
4006,-50.781250
4007,-48.828125
4008,-50.781250
4009,-48.828125
4010,-50.781250
4011,-50.781250
4012,-46.875000
4013,-52.734375
4014,-44.921875
4015,-48.828125
4016,-50.781250
4017,-48.828125
4018,-48.828125
4019,-50.781250
4020,-48.828125
4021,-48.828125
4022,-48.828125
4023,-48.828125
4024,-48.828125
4025,-48.828125
4026,-48.828125
4027,-44.921875
4028,-48.828125
4029,-48.828125
4030,-48.828125
4031,-46.875000
4032,-48.828125
4033,-50.781250
4034,-48.828125
4035,-48.828125
4036,-52.734375
4037,-48.828125
4038,-50.781250
4039,-48.828125
4040,-48.828125
4041,-48.828125
4042,-48.828125
4043,-48.828125
4044,-50.781250
4045,-46.875000
4046,-50.781250
4047,-48.828125
4048,-48.828125
4049,-48.828125
4050,-48.828125
4051,-50.781250
4052,-48.828125
4053,-46.875000
4054,-50.781250
4055,-48.828125
4056,-52.734375
4057,-48.828125
4058,-48.828125
4059,-50.781250
4060,-48.828125
4061,-52.734375
4062,-48.828125
4063,-48.828125
4064,-50.781250
4065,-37.109375
4066,-52.734375
4067,-48.828125
4068,-48.828125
4069,-50.781250
4070,-48.828125
4071,-48.828125
4072,-50.781250
4073,-48.828125
4074,-50.781250
4075,-48.828125
4076,-48.828125
4077,-48.828125
4078,-48.828125
4079,-50.781250
4080,-48.828125
4081,-50.781250
4082,-48.828125
4083,-48.828125
4084,-48.828125
4085,-48.828125
4086,-48.828125
4087,-48.828125
4088,-48.828125
4089,-48.828125
4090,-48.828125
4091,-48.828125
4092,-50.781250
4093,-46.875000
4094,-50.781250
4095,-48.828125
4096,-54.687500
4097,-50.781250
4098,-50.781250
4099,-52.734375
4100,-48.828125
4101,-48.828125
4102,-50.781250
4103,-48.828125
4104,-44.921875
4105,-48.828125
4106,-50.781250
4107,-48.828125
4108,-50.781250
4109,-48.828125
4110,-46.875000
4111,-48.828125
4112,-52.734375
4113,-48.828125
4114,-48.828125
4115,-48.828125
4116,-48.828125
4117,-48.828125
4118,-46.875000
4119,-48.828125
4120,-52.734375
4121,-46.875000
4122,-48.828125
4123,-48.828125
4124,-48.828125
4125,-48.828125
4126,-48.828125
4127,-50.781250
4128,-48.828125
4129,-48.828125
4130,-46.875000
4131,-48.828125
4132,-48.828125
4133,-46.875000
4134,-44.921875
4135,-48.828125
4136,-46.875000
4137,-50.781250
4138,-48.828125
4139,-48.828125
4140,-50.781250
4141,-48.828125
4142,-56.640625
4143,-48.828125
4144,-48.828125
4145,-48.828125
4146,-48.828125
4147,-50.781250
4148,-48.828125
4149,-35.156250
4150,-48.828125
4151,-48.828125
4152,-50.781250
4153,-48.828125
4154,-50.781250
4155,-50.781250
4156,-48.828125
4157,-48.828125
4158,-48.828125
4159,-48.828125
4160,-50.781250
4161,-48.828125
4162,-50.781250
4163,-48.828125
4164,-48.828125
4165,-52.734375
4166,-48.828125
4167,-50.781250
4168,-48.828125
4169,-46.875000
4170,-48.828125
4171,-48.828125
4172,-48.828125
4173,-48.828125
4174,-48.828125
4175,-52.734375
4176,-48.828125
4177,-48.828125
4178,-50.781250
4179,-46.875000
4180,-48.828125
4181,-48.828125
4182,-46.875000
4183,-46.875000
4184,-46.875000
4185,-46.875000
4186,-48.828125
4187,-48.828125
4188,-48.828125
4189,-46.875000
4190,-50.781250
4191,-48.828125
4192,-48.828125
4193,-48.828125
4194,-46.875000
4195,-50.781250
4196,-41.015625
4197,-48.828125
4198,-50.781250
4199,-48.828125
4200,-50.781250
4201,-48.828125
4202,-46.875000
4203,-48.828125
4204,-46.875000
4205,-54.687500
4206,-48.828125
4207,-50.781250
4208,-48.828125
4209,-48.828125
4210,-46.875000
4211,-48.828125
4212,-50.781250
4213,-46.875000
4214,-48.828125
4215,-46.875000
4216,-48.828125
4217,-48.828125
4218,-48.828125
4219,-48.828125
4220,-50.781250
4221,-50.781250
4222,-50.781250
4223,-46.875000
4224,-50.781250
4225,-48.828125
4226,-48.828125
4227,-48.828125
4228,-48.828125
4229,-48.828125
4230,-48.828125
4231,-48.828125
4232,-52.734375
4233,-50.781250
4234,-44.921875
4235,-50.781250
4236,-48.828125
4237,-48.828125
4238,-52.734375
4239,-46.875000
4240,-50.781250
4241,-46.875000
4242,-50.781250
4243,-48.828125
4244,-48.828125
4245,-52.734375
4246,-44.921875
4247,-50.781250
4248,-48.828125
4249,-52.734375
4250,-60.546875
4251,-48.828125
4252,-52.734375
4253,-48.828125
4254,-52.734375
4255,-52.734375
4256,-48.828125
4257,-50.781250
4258,-50.781250
4259,-48.828125
4260,-52.734375
4261,-48.828125
4262,-54.687500
4263,-48.828125
4264,-48.828125
4265,-50.781250
4266,-46.875000
4267,-50.781250
4268,-46.875000
4269,-48.828125
4270,-50.781250
4271,-46.875000
4272,-48.828125
4273,-44.921875
4274,-50.781250
4275,-46.875000
4276,-50.781250
4277,-48.828125
4278,-44.921875
4279,-48.828125
4280,-44.921875
4281,-44.921875
4282,-48.828125
4283,-46.875000
4284,-46.875000
4285,-46.875000
4286,-44.921875
4287,-48.828125
4288,-44.921875
4289,-46.875000
4290,-48.828125
4291,-46.875000
4292,-48.828125
4293,-46.875000
4294,-44.921875
4295,-48.828125
4296,-44.921875
4297,-46.875000
4298,-44.921875
4299,-48.828125
4300,-48.828125
4301,-48.828125
4302,-48.828125
4303,-46.875000
4304,-48.828125
4305,-46.875000
4306,-48.828125
4307,-48.828125
4308,-48.828125
4309,-48.828125
4310,-46.875000
4311,-48.828125
4312,-50.781250
4313,-48.828125
4314,-48.828125
4315,-48.828125
4316,-39.062500
4317,-48.828125
4318,-50.781250
4319,-48.828125
4320,-52.734375
4321,-48.828125
4322,-52.734375
4323,-48.828125
4324,-50.781250
4325,-48.828125
4326,-48.828125
4327,-50.781250
4328,-48.828125
4329,-48.828125
4330,-48.828125
4331,-48.828125
4332,-50.781250
4333,-46.875000
4334,-48.828125
4335,-48.828125
4336,-48.828125
4337,-50.781250
4338,-48.828125
4339,-44.921875
4340,-48.828125
4341,-50.781250
4342,-48.828125
4343,-46.875000
4344,-52.734375
4345,-48.828125
4346,-52.734375
4347,-50.781250
4348,-48.828125
4349,-50.781250
4350,-50.781250
4351,-48.828125
4352,-58.593750
4353,-50.781250
4354,-52.734375
4355,-54.687500
4356,-48.828125
4357,-54.687500
4358,-48.828125
4359,-54.687500
4360,-50.781250
4361,-50.781250
4362,-54.687500
4363,-50.781250
4364,-52.734375
4365,-50.781250
4366,-52.734375
4367,-50.781250
4368,-50.781250
4369,-41.015625
4370,-50.781250
4371,-48.828125
4372,-52.734375
4373,-48.828125
4374,-48.828125
4375,-52.734375
4376,-48.828125
4377,-50.781250
4378,-48.828125
4379,-50.781250
4380,-50.781250
4381,-48.828125
4382,-50.781250
4383,-48.828125
4384,-48.828125
4385,-50.781250
4386,-48.828125
4387,-52.734375
4388,-52.734375
4389,-54.687500
4390,-48.828125
4391,-50.781250
4392,-52.734375
4393,-50.781250
4394,-50.781250
4395,-50.781250
4396,-52.734375
4397,-50.781250
4398,-52.734375
4399,-52.734375
4400,-52.734375
4401,-48.828125
4402,-52.734375
4403,-48.828125
4404,-52.734375
4405,-48.828125
4406,-50.781250
4407,-48.828125
4408,-48.828125
4409,-52.734375
4410,-50.781250
4411,-48.828125
4412,-54.687500
4413,-48.828125
4414,-54.687500
4415,-52.734375
4416,-48.828125
4417,-50.781250
4418,-48.828125
4419,-48.828125
4420,-52.734375
4421,-48.828125
4422,-52.734375
4423,-48.828125
4424,-48.828125
4425,-50.781250
4426,-48.828125
4427,-48.828125
4428,-54.687500
4429,-44.921875
4430,-50.781250
4431,-50.781250
4432,-50.781250
4433,-50.781250
4434,-48.828125
4435,-52.734375
4436,-48.828125
4437,-48.828125
4438,-50.781250
4439,-50.781250
4440,-52.734375
4441,-50.781250
4442,-50.781250
4443,-50.781250
4444,-52.734375
4445,-54.687500
4446,-52.734375
4447,-50.781250
4448,-50.781250
4449,-50.781250
4450,-52.734375
4451,-48.828125
4452,-54.687500
4453,-48.828125
4454,-54.687500
4455,-52.734375
4456,-50.781250
4457,-52.734375
4458,-50.781250
4459,-52.734375
4460,-48.828125
4461,-48.828125
4462,-48.828125
4463,-46.875000
4464,-56.640625
4465,-48.828125
4466,-50.781250
4467,-50.781250
4468,-48.828125
4469,-52.734375
4470,-50.781250
4471,-50.781250
4472,-46.875000
4473,-48.828125
4474,-50.781250
4475,-35.156250
4476,-50.781250
4477,-48.828125
4478,-48.828125
4479,-52.734375
4480,-50.781250
4481,-50.781250
4482,-52.734375
4483,-48.828125
4484,-52.734375
4485,-48.828125
4486,-50.781250
4487,-50.781250
4488,-50.781250
4489,-50.781250
4490,-52.734375
4491,-52.734375
4492,-54.687500
4493,-48.828125
4494,-52.734375
4495,-48.828125
4496,-50.781250
4497,-54.687500
4498,-48.828125
4499,-52.734375
4500,-52.734375
4501,-48.828125
4502,-54.687500
4503,-48.828125
4504,-52.734375
4505,-52.734375
4506,-46.875000
4507,-54.687500
4508,-46.875000
4509,-54.687500
4510,-50.781250
4511,-48.828125
4512,-50.781250
4513,-48.828125
4514,-52.734375
4515,-46.875000
4516,-50.781250
4517,-54.687500
4518,-48.828125
4519,-52.734375
4520,-48.828125
4521,-50.781250
4522,-52.734375
4523,-48.828125
4524,-52.734375
4525,-52.734375
4526,-50.781250
4527,-50.781250
4528,-48.828125
4529,-50.781250
4530,-50.781250
4531,-52.734375
4532,-56.640625
4533,-48.828125
4534,-52.734375
4535,-50.781250
4536,-50.781250
4537,-50.781250
4538,-62.500000
4539,-54.687500
4540,-52.734375
4541,-52.734375
4542,-52.734375
4543,-50.781250
4544,-52.734375
4545,-50.781250
4546,-50.781250
4547,-50.781250
4548,-48.828125
4549,-50.781250
4550,-50.781250
4551,-54.687500
4552,-50.781250
4553,-48.828125
4554,-50.781250
4555,-48.828125
4556,-54.687500
4557,-48.828125
4558,-48.828125
4559,-52.734375
4560,-48.828125
4561,-52.734375
4562,-50.781250
4563,-52.734375
4564,-52.734375
4565,-50.781250
4566,-54.687500
4567,-50.781250
4568,-48.828125
4569,-54.687500
4570,-48.828125
4571,-48.828125
4572,-52.734375
4573,-50.781250
4574,-52.734375
4575,-52.734375
4576,-52.734375
4577,-52.734375
4578,-56.640625
4579,-54.687500
4580,-52.734375
4581,-52.734375
4582,-52.734375
4583,-50.781250
4584,-52.734375
4585,-54.687500
4586,-50.781250
4587,-50.781250
4588,-48.828125
4589,-52.734375
4590,-50.781250
4591,-50.781250
4592,-54.687500
4593,-48.828125
4594,-56.640625
4595,-48.828125
4596,-52.734375
4597,-52.734375
4598,-52.734375
4599,-56.640625
4600,-50.781250
4601,-54.687500
4602,-54.687500
4603,-54.687500
4604,-52.734375
4605,-48.828125
4606,-50.781250
4607,-52.734375
4608,-54.687500
4609,-56.640625
4610,-52.734375
4611,-54.687500
4612,-54.687500
4613,-50.781250
4614,-56.640625
4615,-52.734375
4616,-52.734375
4617,-48.828125
4618,-48.828125
4619,-56.640625
4620,-54.687500
4621,-54.687500
4622,-54.687500
4623,-50.781250
4624,-52.734375
4625,-50.781250
4626,-50.781250
4627,-52.734375
4628,-54.687500
4629,-52.734375
4630,-52.734375
4631,-56.640625
4632,-54.687500
4633,-54.687500
4634,-54.687500
4635,-52.734375
4636,-54.687500
4637,-54.687500
4638,-54.687500
4639,-50.781250
4640,-52.734375
4641,-50.781250
4642,-54.687500
4643,-52.734375
4644,-54.687500
4645,-52.734375
4646,-54.687500
4647,-54.687500
4648,-54.687500
4649,-54.687500
4650,-48.828125
4651,-56.640625
4652,-54.687500
4653,-54.687500
4654,-56.640625
4655,-50.781250
4656,-54.687500
4657,-50.781250
4658,-54.687500
4659,-54.687500
4660,-66.406250
4661,-52.734375
4662,-54.687500
4663,-52.734375
4664,-54.687500
4665,-54.687500
4666,-52.734375
4667,-52.734375
4668,-52.734375
4669,-54.687500
4670,-50.781250
4671,-54.687500
4672,-54.687500
4673,-52.734375
4674,-56.640625
4675,-48.828125
4676,-54.687500
4677,-52.734375
4678,-56.640625
4679,-54.687500
4680,-52.734375
4681,-54.687500
4682,-48.828125
4683,-52.734375
4684,-54.687500
4685,-48.828125
4686,-56.640625
4687,-54.687500
4688,-54.687500
4689,-52.734375
4690,-58.593750
4691,-50.781250
4692,-54.687500
4693,-54.687500
4694,-56.640625
4695,-52.734375
4696,-56.640625
4697,-56.640625
4698,-52.734375
4699,-54.687500
4700,-52.734375
4701,-56.640625
4702,-54.687500
4703,-60.546875
4704,-50.781250
4705,-54.687500
4706,-56.640625
4707,-50.781250
4708,-56.640625
4709,-52.734375
4710,-56.640625
4711,-56.640625
4712,-56.640625
4713,-56.640625
4714,-56.640625
4715,-54.687500
4716,-56.640625
4717,-52.734375
4718,-52.734375
4719,-54.687500
4720,-54.687500
4721,-56.640625
4722,-54.687500
4723,-52.734375
4724,-56.640625
4725,-50.781250
4726,-56.640625
4727,-54.687500
4728,-54.687500
4729,-54.687500
4730,-56.640625
4731,-54.687500
4732,-56.640625
4733,-54.687500
4734,-54.687500
4735,-56.640625
4736,-52.734375
4737,-56.640625
4738,-52.734375
4739,-54.687500
4740,-56.640625
4741,-56.640625
4742,-56.640625
4743,-54.687500
4744,-54.687500
4745,-54.687500
4746,-48.828125
4747,-56.640625
4748,-52.734375
4749,-56.640625
4750,-50.781250
4751,-52.734375
4752,-54.687500
4753,-54.687500
4754,-54.687500
4755,-54.687500
4756,-54.687500
4757,-56.640625
4758,-48.828125
4759,-56.640625
4760,-56.640625
4761,-52.734375
4762,-56.640625
4763,-50.781250
4764,-52.734375
4765,-54.687500
4766,-48.828125
4767,-56.640625
4768,-52.734375
4769,-54.687500
4770,-54.687500
4771,-52.734375
4772,-48.828125
4773,-52.734375
4774,-50.781250
4775,-54.687500
4776,-50.781250
4777,-48.828125
4778,-50.781250
4779,-50.781250
4780,-44.921875
4781,-52.734375
4782,-50.781250
4783,-54.687500
4784,-48.828125
4785,-52.734375
4786,-48.828125
4787,-52.734375
4788,-48.828125
4789,-48.828125
4790,-52.734375
4791,-48.828125
4792,-56.640625
4793,-48.828125
4794,-52.734375
4795,-48.828125
4796,-48.828125
4797,-52.734375
4798,-50.781250
4799,-52.734375
4800,-50.781250
4801,-48.828125
4802,-54.687500
4803,-50.781250
4804,-48.828125
4805,-48.828125
4806,-48.828125
4807,-50.781250
4808,-52.734375
4809,-48.828125
4810,-50.781250
4811,-48.828125
4812,-48.828125
4813,-48.828125
4814,-48.828125
4815,-48.828125
4816,-48.828125
4817,-52.734375
4818,-48.828125
4819,-52.734375
4820,-48.828125
4821,-48.828125
4822,-48.828125
4823,-52.734375
4824,-48.828125
4825,-46.875000
4826,-48.828125
4827,-48.828125
4828,-48.828125
4829,-46.875000
4830,-50.781250
4831,-48.828125
4832,-48.828125
4833,-48.828125
4834,-44.921875
4835,-48.828125
4836,-52.734375
4837,-48.828125
4838,-50.781250
4839,-44.921875
4840,-44.921875
4841,-48.828125
4842,-48.828125
4843,-48.828125
4844,-48.828125
4845,-50.781250
4846,-48.828125
4847,-50.781250
4848,-48.828125
4849,-48.828125
4850,-48.828125
4851,-48.828125
4852,-48.828125
4853,-33.203125
4854,-48.828125
4855,-50.781250
4856,-48.828125
4857,-48.828125
4858,-48.828125
4859,-48.828125
4860,-48.828125
4861,-48.828125
4862,-48.828125
4863,-48.828125
4864,-48.828125
4865,-48.828125
4866,-33.203125
4867,-50.781250
4868,-48.828125
4869,-48.828125
4870,-46.875000
4871,-48.828125
4872,-48.828125
4873,-46.875000
4874,-48.828125
4875,-48.828125
4876,-48.828125
4877,-48.828125
4878,-50.781250
4879,-48.828125
4880,-48.828125
4881,-48.828125
4882,-46.875000
4883,-48.828125
4884,-46.875000
4885,-50.781250
4886,-48.828125
4887,-41.015625
4888,-56.640625
4889,-48.828125
4890,-50.781250
4891,-48.828125
4892,-48.828125
4893,-48.828125
4894,-48.828125
4895,-50.781250
4896,-44.921875
4897,-48.828125
4898,-48.828125
4899,-48.828125
4900,-44.921875
4901,-46.875000
4902,-48.828125
4903,-48.828125
4904,-50.781250
4905,-46.875000
4906,-48.828125
4907,-48.828125
4908,-44.921875
4909,-48.828125
4910,-46.875000
4911,-48.828125
4912,-46.875000
4913,-44.921875
4914,-46.875000
4915,-44.921875
4916,-48.828125
4917,-44.921875
4918,-44.921875
4919,-44.921875
4920,-46.875000
4921,-44.921875
4922,-44.921875
4923,-44.921875
4924,-44.921875
4925,-46.875000
4926,-44.921875
4927,-46.875000
4928,-41.015625
4929,-44.921875
4930,-31.250000
4931,-46.875000
4932,-46.875000
4933,-44.921875
4934,-44.921875
4935,-46.875000
4936,-44.921875
4937,-44.921875
4938,-44.921875
4939,-44.921875
4940,-46.875000
4941,-42.968750
4942,-44.921875
4943,-41.015625
4944,-44.921875
4945,-42.968750
4946,-44.921875
4947,-31.250000
4948,-41.015625
4949,-44.921875
4950,-44.921875
4951,-41.015625
4952,-44.921875
4953,-42.968750
4954,-44.921875
4955,-41.015625
4956,-44.921875
4957,-41.015625
4958,-44.921875
4959,-44.921875
4960,-41.015625
4961,-44.921875
4962,-42.968750
4963,-44.921875
4964,-41.015625
4965,-41.015625
4966,-46.875000
4967,-41.015625
4968,-41.015625
4969,-41.015625
4970,-41.015625
4971,-44.921875
4972,-41.015625
4973,-41.015625
4974,-41.015625
4975,-41.015625
4976,-41.015625
4977,-52.734375
4978,-41.015625
4979,-41.015625
4980,-41.015625
4981,-41.015625
4982,-39.062500
4983,-41.015625
4984,-41.015625
4985,-41.015625
4986,-41.015625
4987,-41.015625
4988,-41.015625
4989,-44.921875
4990,-41.015625
4991,-41.015625
4992,-41.015625
4993,-41.015625
4994,-41.015625
4995,-41.015625
4996,-41.015625
4997,-41.015625
4998,-39.062500
4999,-39.062500
5000,-41.015625
5001,-41.015625
5002,-41.015625
5003,-41.015625
5004,-42.968750
5005,-41.015625
5006,-41.015625
5007,-46.875000
5008,-39.062500
5009,-41.015625
5010,-41.015625
5011,-41.015625
5012,-41.015625
5013,-41.015625
5014,-41.015625
5015,-41.015625
5016,-39.062500
5017,-41.015625
5018,-39.062500
5019,-41.015625
5020,-41.015625
5021,-41.015625
5022,-41.015625
5023,-39.062500
5024,-41.015625
5025,-39.062500
5026,-41.015625
5027,-41.015625
5028,-39.062500
5029,-41.015625
5030,-39.062500
5031,-41.015625
5032,-48.828125
5033,-41.015625
5034,-41.015625
5035,-39.062500
5036,-41.015625
5037,-41.015625
5038,-39.062500
5039,-42.968750
5040,-41.015625
5041,-41.015625
5042,-41.015625
5043,-41.015625
5044,-42.968750
5045,-41.015625
5046,-41.015625
5047,-41.015625
5048,-44.921875
5049,-44.921875
5050,-42.968750
5051,-42.968750
5052,-41.015625
5053,-39.062500
5054,-41.015625
5055,-41.015625
5056,-41.015625
5057,-42.968750
5058,-41.015625
5059,-41.015625
5060,-39.062500
5061,-41.015625
5062,-44.921875
5063,-41.015625
5064,-41.015625
5065,-41.015625
5066,-41.015625
5067,-37.109375
5068,-41.015625
5069,-62.500000
5070,-41.015625
5071,-41.015625
5072,-41.015625
5073,-41.015625
5074,-41.015625
5075,-41.015625
5076,-41.015625
5077,-41.015625
5078,-41.015625
5079,-41.015625
5080,-41.015625
5081,-41.015625
5082,-44.921875
5083,-39.062500
5084,-41.015625
5085,-37.109375
5086,-41.015625
5087,-41.015625
5088,-41.015625
5089,-42.968750
5090,-41.015625
5091,-41.015625
5092,-41.015625
5093,-41.015625
5094,-42.968750
5095,-41.015625
5096,-31.250000
5097,-41.015625
5098,-41.015625
5099,-42.968750
5100,-41.015625
5101,-41.015625
5102,-41.015625
5103,-41.015625
5104,-42.968750
5105,-41.015625
5106,-41.015625
5107,-41.015625
5108,-41.015625
5109,-42.968750
5110,-41.015625
5111,-41.015625
5112,-41.015625
5113,-41.015625
5114,-41.015625
5115,-41.015625
5116,-41.015625
5117,-41.015625
5118,-41.015625
5119,-41.015625
5120,-41.015625
5121,-41.015625
5122,-41.015625
5123,-41.015625
5124,-41.015625
5125,-41.015625
5126,-41.015625
5127,-44.921875
5128,-41.015625
5129,-41.015625
5130,-41.015625
5131,-41.015625
5132,-41.015625
5133,-37.109375
5134,-41.015625
5135,-41.015625
5136,-41.015625
5137,-41.015625
5138,-37.109375
5139,-42.968750
5140,-39.062500
5141,-39.062500
5142,-41.015625
5143,-39.062500
5144,-42.968750
5145,-41.015625
5146,-41.015625
5147,-41.015625
5148,-41.015625
5149,-41.015625
5150,-41.015625
5151,-41.015625
5152,-41.015625
5153,-41.015625
5154,-41.015625
5155,-41.015625
5156,-41.015625
5157,-41.015625
5158,-41.015625
5159,-44.921875
5160,-41.015625
5161,-41.015625
5162,-41.015625
5163,-41.015625
5164,-41.015625
5165,-41.015625
5166,-41.015625
5167,-41.015625
5168,-41.015625
5169,-41.015625
5170,-39.062500
5171,-39.062500
5172,-41.015625
5173,-41.015625
5174,-41.015625
5175,-41.015625
5176,-41.015625
5177,-41.015625
5178,-39.062500
5179,-41.015625
5180,-41.015625
5181,-41.015625
5182,-44.921875
5183,-41.015625
5184,-41.015625
5185,-41.015625
5186,-41.015625
5187,-41.015625
5188,-39.062500
5189,-41.015625
5190,-41.015625
5191,-41.015625
5192,-42.968750
5193,-41.015625
5194,-41.015625
5195,-41.015625
5196,-44.921875
5197,-41.015625
5198,-41.015625
5199,-41.015625
5200,-41.015625
5201,-41.015625
5202,-41.015625
5203,-41.015625
5204,-41.015625
5205,-41.015625
5206,-41.015625
5207,-41.015625
5208,-42.968750
5209,-41.015625
5210,-41.015625
5211,-44.921875
5212,-41.015625
5213,-41.015625
5214,-42.968750
5215,-41.015625
5216,-42.968750
5217,-41.015625
5218,-41.015625
5219,-44.921875
5220,-39.062500
5221,-41.015625
5222,-41.015625
5223,-41.015625
5224,-44.921875
5225,-39.062500
5226,-41.015625
5227,-41.015625
5228,-41.015625
5229,-41.015625
5230,-41.015625
5231,-41.015625
5232,-41.015625
5233,-39.062500
5234,-41.015625
5235,-42.968750
5236,-39.062500
5237,-41.015625
5238,-41.015625
5239,-44.921875
5240,-41.015625
5241,-41.015625
5242,-44.921875
5243,-41.015625
5244,-44.921875
5245,-41.015625
5246,-44.921875
5247,-41.015625
5248,-41.015625
5249,-41.015625
5250,-41.015625
5251,-39.062500
5252,-41.015625
5253,-41.015625
5254,-42.968750
5255,-39.062500
5256,-41.015625
5257,-41.015625
5258,-41.015625
5259,-42.968750
5260,-42.968750
5261,-41.015625
5262,-44.921875
5263,-41.015625
5264,-41.015625
5265,-41.015625
5266,-41.015625
5267,-41.015625
5268,-44.921875
5269,-44.921875
5270,-41.015625
5271,-41.015625
5272,-41.015625
5273,-41.015625
5274,-44.921875
5275,-39.062500
5276,-41.015625
5277,-41.015625
5278,-41.015625
5279,-42.968750
5280,-41.015625
5281,-41.015625
5282,-41.015625
5283,-41.015625
5284,-41.015625
5285,-41.015625
5286,-41.015625
5287,-41.015625
5288,-41.015625
5289,-41.015625
5290,-41.015625
5291,-42.968750
5292,-41.015625
5293,-41.015625
5294,-41.015625
5295,-41.015625
5296,-41.015625
5297,-42.968750
5298,-39.062500
5299,-42.968750
5300,-41.015625
5301,-42.968750
5302,-41.015625
5303,-41.015625
5304,-41.015625
5305,-41.015625
5306,-42.968750
5307,-41.015625
5308,-41.015625
5309,-41.015625
5310,-41.015625
5311,-41.015625
5312,-41.015625
5313,-41.015625
5314,-41.015625
5315,-41.015625
5316,-39.062500
5317,-41.015625
5318,-39.062500
5319,-41.015625
5320,-41.015625
5321,-41.015625
5322,-41.015625
5323,-39.062500
5324,-41.015625
5325,-39.062500
5326,-41.015625
5327,-41.015625
5328,-44.921875
5329,-41.015625
5330,-39.062500
5331,-39.062500
5332,-41.015625
5333,-41.015625
5334,-41.015625
5335,-39.062500
5336,-39.062500
5337,-41.015625
5338,-41.015625
5339,-41.015625
5340,-41.015625
5341,-39.062500
5342,-41.015625
5343,-39.062500
5344,-41.015625
5345,-39.062500
5346,-39.062500
5347,-41.015625
5348,-39.062500
5349,-41.015625
5350,-41.015625
5351,-41.015625
5352,-41.015625
5353,-41.015625
5354,-41.015625
5355,-41.015625
5356,-41.015625
5357,-41.015625
5358,-41.015625
5359,-41.015625
5360,-41.015625
5361,-39.062500
5362,-41.015625
5363,-39.062500
5364,-41.015625
5365,-41.015625
5366,-39.062500
5367,-41.015625
5368,-41.015625
5369,-41.015625
5370,-41.015625
5371,-37.109375
5372,-41.015625
5373,-41.015625
5374,-41.015625
5375,-41.015625
5376,-39.062500
5377,-41.015625
5378,-41.015625
5379,-41.015625
5380,-42.968750
5381,-41.015625
5382,-39.062500
5383,-41.015625
5384,-41.015625
5385,-41.015625
5386,-39.062500
5387,-41.015625
5388,-41.015625
5389,-41.015625
5390,-41.015625
5391,-39.062500
5392,-41.015625
5393,-41.015625
5394,-41.015625
5395,-41.015625
5396,-39.062500
5397,-41.015625
5398,-41.015625
5399,-41.015625
5400,-41.015625
5401,-41.015625
5402,-41.015625
5403,-41.015625
5404,-41.015625
5405,-35.156250
5406,-41.015625
5407,-42.968750
5408,-41.015625
5409,-41.015625
5410,-41.015625
5411,-41.015625
5412,-41.015625
5413,-41.015625
5414,-41.015625
5415,-41.015625
5416,-41.015625
5417,-41.015625
5418,-41.015625
5419,-41.015625
5420,-41.015625
5421,-41.015625
5422,-37.109375
5423,-41.015625
5424,-41.015625
5425,-41.015625
5426,-41.015625
5427,-41.015625
5428,-41.015625
5429,-41.015625
5430,-41.015625
5431,-41.015625
5432,-41.015625
5433,-41.015625
5434,-39.062500
5435,-39.062500
5436,-41.015625
5437,-41.015625
5438,-41.015625
5439,-37.109375
5440,-41.015625
5441,-37.109375
5442,-48.828125
5443,-39.062500
5444,-41.015625
5445,-41.015625
5446,-37.109375
5447,-35.156250
5448,-39.062500
5449,-39.062500
5450,-44.921875
5451,-39.062500
5452,-44.921875
5453,-39.062500
5454,-41.015625
5455,-44.921875
5456,-41.015625
5457,-37.109375
5458,-39.062500
5459,-42.968750
5460,-37.109375
5461,-42.968750
5462,-41.015625
5463,-41.015625
5464,-44.921875
5465,-44.921875
5466,-44.921875
5467,-41.015625
5468,-41.015625
5469,-46.875000
5470,-41.015625
5471,-44.921875
5472,-41.015625
5473,-41.015625
5474,-44.921875
5475,-41.015625
5476,-42.968750
5477,-44.921875
5478,-41.015625
5479,-44.921875
5480,-44.921875
5481,-41.015625
5482,-44.921875
5483,-42.968750
5484,-44.921875
5485,-44.921875
5486,-44.921875
5487,-46.875000
5488,-41.015625
5489,-44.921875
5490,-44.921875
5491,-48.828125
5492,-44.921875
5493,-44.921875
5494,-44.921875
5495,-48.828125
5496,-46.875000
5497,-46.875000
5498,-44.921875
5499,-48.828125
5500,-46.875000
5501,-44.921875
5502,-46.875000
5503,-44.921875
5504,-44.921875
5505,-42.968750
5506,-44.921875
5507,-44.921875
5508,-44.921875
5509,-44.921875
5510,-44.921875
5511,-42.968750
5512,-48.828125
5513,-44.921875
5514,-44.921875
5515,-44.921875
5516,-52.734375
5517,-46.875000
5518,-44.921875
5519,-41.015625
5520,-44.921875
5521,-42.968750
5522,-44.921875
5523,-44.921875
5524,-41.015625
5525,-46.875000
5526,-44.921875
5527,-44.921875
5528,-41.015625
5529,-41.015625
5530,-44.921875
5531,-41.015625
5532,-44.921875
5533,-42.968750
5534,-44.921875
5535,-44.921875
5536,-44.921875
5537,-44.921875
5538,-44.921875
5539,-44.921875
5540,-44.921875
5541,-44.921875
5542,-44.921875
5543,-44.921875
5544,-44.921875
5545,-44.921875
5546,-44.921875
5547,-44.921875
5548,-44.921875
5549,-46.875000
5550,-44.921875
5551,-44.921875
5552,-46.875000
5553,-44.921875
5554,-48.828125
5555,-44.921875
5556,-44.921875
5557,-44.921875
5558,-44.921875
5559,-44.921875
5560,-44.921875
5561,-44.921875
5562,-46.875000
5563,-46.875000
5564,-46.875000
5565,-44.921875
5566,-44.921875
5567,-46.875000
5568,-44.921875
5569,-48.828125
5570,-46.875000
5571,-44.921875
5572,-44.921875
5573,-46.875000
5574,-46.875000
5575,-44.921875
5576,-39.062500
5577,-46.875000
5578,-44.921875
5579,-44.921875
5580,-44.921875
5581,-44.921875
5582,-46.875000
5583,-44.921875
5584,-46.875000
5585,-44.921875
5586,-48.828125
5587,-48.828125
5588,-44.921875
5589,-48.828125
5590,-44.921875
5591,-48.828125
5592,-44.921875
5593,-46.875000
5594,-48.828125
5595,-44.921875
5596,-46.875000
5597,-46.875000
5598,-48.828125
5599,-44.921875
5600,-46.875000
5601,-48.828125
5602,-46.875000
5603,-48.828125
5604,-46.875000
5605,-46.875000
5606,-46.875000
5607,-44.921875
5608,-48.828125
5609,-46.875000
5610,-48.828125
5611,-48.828125
5612,-44.921875
5613,-48.828125
5614,-48.828125
5615,-44.921875
5616,-46.875000
5617,-48.828125
5618,-46.875000
5619,-52.734375
5620,-46.875000
5621,-48.828125
5622,-48.828125
5623,-62.500000
5624,-48.828125
5625,-46.875000
5626,-48.828125
5627,-44.921875
5628,-48.828125
5629,-48.828125
5630,-46.875000
5631,-48.828125
5632,-44.921875
5633,-44.921875
5634,-48.828125
5635,-46.875000
5636,-48.828125
5637,-46.875000
5638,-46.875000
5639,-56.640625
5640,-46.875000
5641,-46.875000
5642,-46.875000
5643,-44.921875
5644,-48.828125
5645,-44.921875
5646,-48.828125
5647,-44.921875
5648,-50.781250
5649,-50.781250
5650,-48.828125
5651,-48.828125
5652,-48.828125
5653,-50.781250
5654,-48.828125
5655,-48.828125
5656,-50.781250
5657,-50.781250
5658,-44.921875
5659,-46.875000
5660,-48.828125
5661,-46.875000
5662,-48.828125
5663,-44.921875
5664,-48.828125
5665,-48.828125
5666,-46.875000
5667,-46.875000
5668,-46.875000
5669,-48.828125
5670,-44.921875
5671,-46.875000
5672,-48.828125
5673,-44.921875
5674,-46.875000
5675,-48.828125
5676,-48.828125
5677,-46.875000
5678,-44.921875
5679,-48.828125
5680,-48.828125
5681,-46.875000
5682,-48.828125
5683,-58.593750
5684,-48.828125
5685,-46.875000
5686,-46.875000
5687,-46.875000
5688,-44.921875
5689,-46.875000
5690,-48.828125
5691,-48.828125
5692,-50.781250
5693,-44.921875
5694,-50.781250
5695,-44.921875
5696,-48.828125
5697,-44.921875
5698,-50.781250
5699,-48.828125
5700,-50.781250
5701,-50.781250
5702,-46.875000
5703,-46.875000
5704,-48.828125
5705,-48.828125
5706,-50.781250
5707,-44.921875
5708,-48.828125
5709,-46.875000
5710,-48.828125
5711,-50.781250
5712,-46.875000
5713,-46.875000
5714,-46.875000
5715,-48.828125
5716,-54.687500
5717,-46.875000
5718,-46.875000
5719,-46.875000
5720,-44.921875
5721,-48.828125
5722,-44.921875
5723,-48.828125
5724,-46.875000
5725,-44.921875
5726,-48.828125
5727,-44.921875
5728,-48.828125
5729,-46.875000
5730,-35.156250
5731,-48.828125
5732,-48.828125
5733,-46.875000
5734,-48.828125
5735,-48.828125
5736,-48.828125
5737,-50.781250
5738,-46.875000
5739,-48.828125
5740,-46.875000
5741,-44.921875
5742,-52.734375
5743,-48.828125
5744,-50.781250
5745,-46.875000
5746,-50.781250
5747,-48.828125
5748,-48.828125
5749,-48.828125
5750,-46.875000
5751,-48.828125
5752,-48.828125
5753,-48.828125
5754,-48.828125
5755,-48.828125
5756,-52.734375
5757,-48.828125
5758,-48.828125
5759,-48.828125
5760,-50.781250
5761,-48.828125
5762,-48.828125
5763,-46.875000
5764,-50.781250
5765,-48.828125
5766,-48.828125
5767,-50.781250
5768,-46.875000
5769,-50.781250
5770,-46.875000
5771,-48.828125
5772,-48.828125
5773,-48.828125
5774,-48.828125
5775,-48.828125
5776,-50.781250
5777,-48.828125
5778,-48.828125
5779,-50.781250
5780,-44.921875
5781,-48.828125
5782,-48.828125
5783,-46.875000
5784,-48.828125
5785,-48.828125
5786,-48.828125
5787,-48.828125
5788,-48.828125
5789,-48.828125
5790,-48.828125
5791,-48.828125
5792,-48.828125
5793,-46.875000
5794,-52.734375
5795,-50.781250
5796,-48.828125
5797,-48.828125
5798,-48.828125
5799,-54.687500
5800,-46.875000
5801,-50.781250
5802,-48.828125
5803,-46.875000
5804,-52.734375
5805,-48.828125
5806,-50.781250
5807,-44.921875
5808,-48.828125
5809,-48.828125
5810,-48.828125
5811,-52.734375
5812,-48.828125
5813,-48.828125
5814,-48.828125
5815,-48.828125
5816,-50.781250
5817,-48.828125
5818,-48.828125
5819,-48.828125
5820,-48.828125
5821,-50.781250
5822,-50.781250
5823,-48.828125
5824,-52.734375
5825,-48.828125
5826,-48.828125
5827,-48.828125
5828,-48.828125
5829,-50.781250
5830,-48.828125
5831,-48.828125
5832,-50.781250
5833,-48.828125
5834,-50.781250
5835,-48.828125
5836,-52.734375
5837,-56.640625
5838,-50.781250
5839,-50.781250
5840,-48.828125
5841,-54.687500
5842,-54.687500
5843,-50.781250
5844,-54.687500
5845,-50.781250
5846,-50.781250
5847,-50.781250
5848,-52.734375
5849,-48.828125
5850,-50.781250
5851,-52.734375
5852,-48.828125
5853,-50.781250
5854,-50.781250
5855,-50.781250
5856,-48.828125
5857,-50.781250
5858,-52.734375
5859,-48.828125
5860,-50.781250
5861,-48.828125
5862,-48.828125
5863,-50.781250
5864,-50.781250
5865,-48.828125
5866,-50.781250
5867,-48.828125
5868,-52.734375
5869,-48.828125
5870,-48.828125
5871,-48.828125
5872,-48.828125
5873,-52.734375
5874,-48.828125
5875,-52.734375
5876,-52.734375
5877,-48.828125
5878,-52.734375
5879,-50.781250
5880,-48.828125
5881,-48.828125
5882,-48.828125
5883,-50.781250
5884,-48.828125
5885,-50.781250
5886,-50.781250
5887,-48.828125
5888,-50.781250
5889,-48.828125
5890,-54.687500
5891,-50.781250
5892,-50.781250
5893,-54.687500
5894,-50.781250
5895,-48.828125
5896,-48.828125
5897,-52.734375
5898,-48.828125
5899,-48.828125
5900,-52.734375
5901,-50.781250
5902,-48.828125
5903,-50.781250
5904,-48.828125
5905,-52.734375
5906,-48.828125
5907,-56.640625
5908,-50.781250
5909,-48.828125
5910,-50.781250
5911,-48.828125
5912,-52.734375
5913,-48.828125
5914,-48.828125
5915,-50.781250
5916,-48.828125
5917,-50.781250
5918,-48.828125
5919,-48.828125
5920,-52.734375
5921,-48.828125
5922,-50.781250
5923,-54.687500
5924,-50.781250
5925,-54.687500
5926,-48.828125
5927,-33.203125
5928,-48.828125
5929,-48.828125
5930,-52.734375
5931,-48.828125
5932,-46.875000
5933,-50.781250
5934,-48.828125
5935,-52.734375
5936,-48.828125
5937,-48.828125
5938,-50.781250
5939,-52.734375
5940,-52.734375
5941,-48.828125
5942,-52.734375
5943,-52.734375
5944,-50.781250
5945,-48.828125
5946,-52.734375
5947,-50.781250
5948,-48.828125
5949,-52.734375
5950,-52.734375
5951,-48.828125
5952,-52.734375
5953,-44.921875
5954,-48.828125
5955,-48.828125
5956,-50.781250
5957,-54.687500
5958,-50.781250
5959,-50.781250
5960,-50.781250
5961,-52.734375
5962,-48.828125
5963,-52.734375
5964,-48.828125
5965,-50.781250
5966,-52.734375
5967,-44.921875
5968,-44.921875
5969,-48.828125
5970,-50.781250
5971,-48.828125
5972,-48.828125
5973,-50.781250
5974,-48.828125
5975,-52.734375
5976,-50.781250
5977,-48.828125
5978,-48.828125
5979,-54.687500
5980,-48.828125
5981,-48.828125
5982,-48.828125
5983,-48.828125
5984,-52.734375
5985,-46.875000
5986,-52.734375
5987,-56.640625
5988,-48.828125
5989,-46.875000
5990,-48.828125
5991,-48.828125
5992,-46.875000
5993,-50.781250
5994,-48.828125
5995,-48.828125
5996,-50.781250
5997,-48.828125
5998,-50.781250
5999,-44.921875
6000,-48.828125
6001,-54.687500
6002,-48.828125
6003,-50.781250
6004,-48.828125
6005,-48.828125
6006,-48.828125
6007,-44.921875
6008,-48.828125
6009,-46.875000
6010,-44.921875
6011,-48.828125
6012,-48.828125
6013,-44.921875
6014,-48.828125
6015,-44.921875
6016,-46.875000
6017,-44.921875
6018,-46.875000
6019,-46.875000
6020,-44.921875
6021,-50.781250
6022,-46.875000
6023,-46.875000
6024,-46.875000
6025,-46.875000
6026,-50.781250
6027,-44.921875
6028,-46.875000
6029,-48.828125
6030,-46.875000
6031,-46.875000
6032,-46.875000
6033,-46.875000
6034,-46.875000
6035,-44.921875
6036,-46.875000
6037,-44.921875
6038,-46.875000
6039,-46.875000
6040,-44.921875
6041,-44.921875
6042,-44.921875
6043,-50.781250
6044,-44.921875
6045,-44.921875
6046,-48.828125
6047,-44.921875
6048,-46.875000
6049,-44.921875
6050,-46.875000
6051,-44.921875
6052,-44.921875
6053,-46.875000
6054,-44.921875
6055,-44.921875
6056,-44.921875
6057,-44.921875
6058,-46.875000
6059,-44.921875
6060,-48.828125
6061,-44.921875
6062,-44.921875
6063,-56.640625
6064,-42.968750
6065,-44.921875
6066,-44.921875
6067,-44.921875
6068,-44.921875
6069,-44.921875
6070,-41.015625
6071,-44.921875
6072,-42.968750
6073,-39.062500
6074,-44.921875
6075,-41.015625
6076,-44.921875
6077,-44.921875
6078,-41.015625
6079,-41.015625
6080,-41.015625
6081,-41.015625
6082,-41.015625
6083,-44.921875
6084,-41.015625
6085,-41.015625
6086,-44.921875
6087,-41.015625
6088,-44.921875
6089,-41.015625
6090,-44.921875
6091,-41.015625
6092,-42.968750
6093,-41.015625
6094,-41.015625
6095,-44.921875
6096,-41.015625
6097,-44.921875
6098,-44.921875
6099,-41.015625
6100,-41.015625
6101,-41.015625
6102,-44.921875
6103,-39.062500
6104,-42.968750
6105,-41.015625
6106,-41.015625
6107,-46.875000
6108,-42.968750
6109,-41.015625
6110,-41.015625
6111,-41.015625
6112,-41.015625
6113,-44.921875
6114,-41.015625
6115,-44.921875
6116,-41.015625
6117,-41.015625
6118,-42.968750
6119,-41.015625
6120,-41.015625
6121,-41.015625
6122,-39.062500
6123,-41.015625
6124,-39.062500
6125,-41.015625
6126,-39.062500
6127,-41.015625
6128,-41.015625
6129,-39.062500
6130,-41.015625
6131,-41.015625
6132,-41.015625
6133,-41.015625
6134,-41.015625
6135,-42.968750
6136,-41.015625
6137,-41.015625
6138,-41.015625
6139,-41.015625
6140,-41.015625
6141,-41.015625
6142,-39.062500
6143,-41.015625
6144,-39.062500
6145,-41.015625
6146,-41.015625
6147,-41.015625
6148,-41.015625
6149,-41.015625
6150,-44.921875
6151,-41.015625
6152,-41.015625
6153,-41.015625
6154,-41.015625
6155,-42.968750
6156,-39.062500
6157,-41.015625
6158,-41.015625
6159,-41.015625
6160,-41.015625
6161,-41.015625
6162,-41.015625
6163,-37.109375
6164,-39.062500
6165,-41.015625
6166,-41.015625
6167,-33.203125
6168,-41.015625
6169,-39.062500
6170,-41.015625
6171,-41.015625
6172,-41.015625
6173,-41.015625
6174,-39.062500
6175,-42.968750
6176,-41.015625
6177,-41.015625
6178,-41.015625
6179,-39.062500
6180,-44.921875
6181,-41.015625
6182,-41.015625
6183,-42.968750
6184,-41.015625
6185,-41.015625
6186,-42.968750
6187,-41.015625
6188,-41.015625
6189,-41.015625
6190,-41.015625
6191,-41.015625
6192,-41.015625
6193,-41.015625
6194,-39.062500
6195,-44.921875
6196,-41.015625
6197,-27.343750
6198,-44.921875
6199,-41.015625
6200,-41.015625
6201,-41.015625
6202,-41.015625
6203,-41.015625
6204,-41.015625
6205,-41.015625
6206,-41.015625
6207,-44.921875
6208,-41.015625
6209,-41.015625
6210,-41.015625
6211,-41.015625
6212,-44.921875
6213,-41.015625
6214,-42.968750
6215,-41.015625
6216,-41.015625
6217,-44.921875
6218,-41.015625
6219,-41.015625
6220,-42.968750
6221,-41.015625
6222,-44.921875
6223,-39.062500
6224,-41.015625
6225,-41.015625
6226,-39.062500
6227,-41.015625
6228,-41.015625
6229,-41.015625
6230,-41.015625
6231,-41.015625
6232,-39.062500
6233,-41.015625
6234,-41.015625
6235,-41.015625
6236,-41.015625
6237,-41.015625
6238,-41.015625
6239,-41.015625
6240,-41.015625
6241,-44.921875
6242,-41.015625
6243,-41.015625
6244,-23.437500
6245,-41.015625
6246,-41.015625
6247,-41.015625
6248,-42.968750
6249,-41.015625
6250,-44.921875
6251,-44.921875
6252,-41.015625
6253,-42.968750
6254,-41.015625
6255,-41.015625
6256,-41.015625
6257,-37.109375
6258,-44.921875
6259,-41.015625
6260,-44.921875
6261,-41.015625
6262,-44.921875
6263,-42.968750
6264,-41.015625
6265,-41.015625
6266,-44.921875
6267,-41.015625
6268,-41.015625
6269,-41.015625
6270,-41.015625
6271,-41.015625
6272,-41.015625
6273,-44.921875
6274,-41.015625
6275,-41.015625
6276,-35.156250
6277,-41.015625
6278,-44.921875
6279,-41.015625
6280,-41.015625
6281,-41.015625
6282,-41.015625
6283,-41.015625
6284,-39.062500
6285,-41.015625
6286,-41.015625
6287,-54.687500
6288,-46.875000
6289,-41.015625
6290,-41.015625
6291,-41.015625
6292,-41.015625
6293,-41.015625
6294,-41.015625
6295,-41.015625
6296,-41.015625
6297,-41.015625
6298,-41.015625
6299,-41.015625
6300,-44.921875
6301,-35.156250
6302,-41.015625
6303,-41.015625
6304,-33.203125
6305,-41.015625
6306,-41.015625
6307,-41.015625
6308,-41.015625
6309,-41.015625
6310,-44.921875
6311,-41.015625
6312,-42.968750
6313,-41.015625
6314,-41.015625
6315,-41.015625
6316,-41.015625
6317,-35.156250
6318,-41.015625
6319,-41.015625
6320,-41.015625
6321,-41.015625
6322,-41.015625
6323,-41.015625
6324,-41.015625
6325,-41.015625
6326,-41.015625
6327,-41.015625
6328,-41.015625
6329,-41.015625
6330,-41.015625
6331,-41.015625
6332,-41.015625
6333,-41.015625
6334,-39.062500
6335,-42.968750
6336,-41.015625
6337,-42.968750
6338,-41.015625
6339,-41.015625
6340,-41.015625
6341,-41.015625
6342,-41.015625
6343,-41.015625
6344,-39.062500
6345,-41.015625
6346,-41.015625
6347,-41.015625
6348,-41.015625
6349,-41.015625
6350,-41.015625
6351,-41.015625
6352,-41.015625
6353,-44.921875
6354,-37.109375
6355,-41.015625
6356,-41.015625
6357,-41.015625
6358,-42.968750
6359,-41.015625
6360,-41.015625
6361,-41.015625
6362,-41.015625
6363,-41.015625
6364,-35.156250
6365,-42.968750
6366,-41.015625
6367,-41.015625
6368,-41.015625
6369,-41.015625
6370,-41.015625
6371,-41.015625
6372,-41.015625
6373,-41.015625
6374,-35.156250
6375,-41.015625
6376,-41.015625
6377,-41.015625
6378,-41.015625
6379,-41.015625
6380,-41.015625
6381,-41.015625
6382,-41.015625
6383,-44.921875
6384,-39.062500
6385,-41.015625
6386,-42.968750
6387,-41.015625
6388,-42.968750
6389,-41.015625
6390,-41.015625
6391,-41.015625
6392,-41.015625
6393,-41.015625
6394,-46.875000
6395,-41.015625
6396,-42.968750
6397,-39.062500
6398,-41.015625
6399,-41.015625
6400,-41.015625
6401,-42.968750
6402,-41.015625
6403,-41.015625
6404,-41.015625
6405,-44.921875
6406,-41.015625
6407,-41.015625
6408,-41.015625
6409,-41.015625
6410,-42.968750
6411,-41.015625
6412,-41.015625
6413,-41.015625
6414,-41.015625
6415,-41.015625
6416,-37.109375
6417,-41.015625
6418,-41.015625
6419,-39.062500
6420,-41.015625
6421,-41.015625
6422,-39.062500
6423,-39.062500
6424,-41.015625
6425,-41.015625
6426,-41.015625
6427,-39.062500
6428,-41.015625
6429,-39.062500
6430,-41.015625
6431,-44.921875
6432,-39.062500
6433,-41.015625
6434,-39.062500
6435,-41.015625
6436,-42.968750
6437,-42.968750
6438,-41.015625
6439,-39.062500
6440,-41.015625
6441,-31.250000
6442,-39.062500
6443,-41.015625
6444,-41.015625
6445,-39.062500
6446,-41.015625
6447,-41.015625
6448,-41.015625
6449,-41.015625
6450,-39.062500
6451,-41.015625
6452,-41.015625
6453,-41.015625
6454,-39.062500
6455,-41.015625
6456,-41.015625
6457,-41.015625
6458,-41.015625
6459,-41.015625
6460,-41.015625
6461,-39.062500
6462,-41.015625
6463,-41.015625
6464,-41.015625
6465,-44.921875
6466,-39.062500
6467,-41.015625
6468,-41.015625
6469,-41.015625
6470,-41.015625
6471,-41.015625
6472,-41.015625
6473,-41.015625
6474,-37.109375
6475,-41.015625
6476,-41.015625
6477,-39.062500
6478,-41.015625
6479,-39.062500
6480,-39.062500
6481,-41.015625
6482,-41.015625
6483,-41.015625
6484,-41.015625
6485,-41.015625
6486,-41.015625
6487,-41.015625
6488,-41.015625
6489,-42.968750
6490,-41.015625
6491,-42.968750
6492,-41.015625
6493,-41.015625
6494,-44.921875
6495,-41.015625
6496,-41.015625
6497,-41.015625
6498,-41.015625
6499,-44.921875
6500,-41.015625
6501,-41.015625
6502,-41.015625
6503,-41.015625
6504,-42.968750
6505,-39.062500
6506,-41.015625
6507,-41.015625
6508,-41.015625
6509,-44.921875
6510,-41.015625
6511,-41.015625
6512,-41.015625
6513,-39.062500
6514,-41.015625
6515,-39.062500
6516,-41.015625
6517,-39.062500
6518,-39.062500
6519,-41.015625
6520,-39.062500
6521,-41.015625
6522,-41.015625
6523,-37.109375
6524,-39.062500
6525,-39.062500
6526,-39.062500
6527,-41.015625
6528,-39.062500
6529,-39.062500
6530,-37.109375
6531,-37.109375
6532,-41.015625
6533,-39.062500
6534,-41.015625
6535,-41.015625
6536,-41.015625
6537,-41.015625
6538,-39.062500
6539,-41.015625
6540,-39.062500
6541,-42.968750
6542,-41.015625
6543,-39.062500
6544,-42.968750
6545,-41.015625
6546,-41.015625
6547,-41.015625
6548,-37.109375
6549,-35.156250
6550,-41.015625
6551,-41.015625
6552,-41.015625
6553,-41.015625
6554,-44.921875
6555,-44.921875
6556,-44.921875
6557,-44.921875
6558,-44.921875
6559,-44.921875
6560,-44.921875
6561,-56.640625
6562,-44.921875
6563,-44.921875
6564,-46.875000
6565,-44.921875
6566,-44.921875
6567,-44.921875
6568,-41.015625
6569,-48.828125
6570,-44.921875
6571,-44.921875
6572,-44.921875
6573,-44.921875
6574,-48.828125
6575,-46.875000
6576,-46.875000
6577,-44.921875
6578,-44.921875
6579,-44.921875
6580,-44.921875
6581,-44.921875
6582,-46.875000
6583,-42.968750
6584,-64.453125
6585,-44.921875
6586,-44.921875
6587,-46.875000
6588,-41.015625
6589,-44.921875
6590,-44.921875
6591,-44.921875
6592,-46.875000
6593,-44.921875
6594,-46.875000
6595,-44.921875
6596,-44.921875
6597,-44.921875
6598,-44.921875
6599,-46.875000
6600,-46.875000
6601,-46.875000
6602,-44.921875
6603,-46.875000
6604,-50.781250
6605,-46.875000
6606,-48.828125
6607,-46.875000
6608,-44.921875
6609,-48.828125
6610,-46.875000
6611,-48.828125
6612,-48.828125
6613,-44.921875
6614,-48.828125
6615,-46.875000
6616,-46.875000
6617,-48.828125
6618,-44.921875
6619,-46.875000
6620,-44.921875
6621,-48.828125
6622,-48.828125
6623,-44.921875
6624,-46.875000
6625,-44.921875
6626,-41.015625
6627,-46.875000
6628,-44.921875
6629,-46.875000
6630,-46.875000
6631,-44.921875
6632,-46.875000
6633,-44.921875
6634,-46.875000
6635,-44.921875
6636,-44.921875
6637,-46.875000
6638,-44.921875
6639,-46.875000
6640,-46.875000
6641,-44.921875
6642,-46.875000
6643,-44.921875
6644,-44.921875
6645,-44.921875
6646,-44.921875
6647,-44.921875
6648,-44.921875
6649,-44.921875
6650,-44.921875
6651,-44.921875
6652,-44.921875
6653,-44.921875
6654,-44.921875
6655,-44.921875
6656,-41.015625
6657,-46.875000
6658,-44.921875
6659,-41.015625
6660,-46.875000
6661,-41.015625
6662,-46.875000
6663,-42.968750
6664,-48.828125
6665,-46.875000
6666,-44.921875
6667,-44.921875
6668,-44.921875
6669,-44.921875
6670,-44.921875
6671,-48.828125
6672,-44.921875
6673,-44.921875
6674,-44.921875
6675,-46.875000
6676,-44.921875
6677,-44.921875
6678,-44.921875
6679,-44.921875
6680,-48.828125
6681,-46.875000
6682,-44.921875
6683,-44.921875
6684,-44.921875
6685,-44.921875
6686,-44.921875
6687,-44.921875
6688,-46.875000
6689,-44.921875
6690,-44.921875
6691,-44.921875
6692,-48.828125
6693,-44.921875
6694,-48.828125
6695,-44.921875
6696,-46.875000
6697,-44.921875
6698,-56.640625
6699,-44.921875
6700,-46.875000
6701,-42.968750
6702,-44.921875
6703,-44.921875
6704,-44.921875
6705,-46.875000
6706,-41.015625
6707,-44.921875
6708,-42.968750
6709,-44.921875
6710,-44.921875
6711,-44.921875
6712,-46.875000
6713,-41.015625
6714,-46.875000
6715,-44.921875
6716,-44.921875
6717,-46.875000
6718,-44.921875
6719,-44.921875
6720,-44.921875
6721,-41.015625
6722,-44.921875
6723,-44.921875
6724,-46.875000
6725,-46.875000
6726,-41.015625
6727,-44.921875
6728,-44.921875
6729,-44.921875
6730,-42.968750
6731,-50.781250
6732,-42.968750
6733,-44.921875
6734,-44.921875
6735,-44.921875
6736,-41.015625
6737,-44.921875
6738,-44.921875
6739,-44.921875
6740,-44.921875
6741,-44.921875
6742,-41.015625
6743,-44.921875
6744,-44.921875
6745,-42.968750
6746,-46.875000
6747,-37.109375
6748,-44.921875
6749,-44.921875
6750,-46.875000
6751,-44.921875
6752,-44.921875
6753,-44.921875
6754,-39.062500
6755,-44.921875
6756,-44.921875
6757,-44.921875
6758,-37.109375
6759,-42.968750
6760,-44.921875
6761,-44.921875
6762,-44.921875
6763,-46.875000
6764,-44.921875
6765,-44.921875
6766,-44.921875
6767,-44.921875
6768,-44.921875
6769,-44.921875
6770,-44.921875
6771,-46.875000
6772,-44.921875
6773,-44.921875
6774,-44.921875
6775,-44.921875
6776,-44.921875
6777,-41.015625
6778,-44.921875
6779,-44.921875
6780,-46.875000
6781,-44.921875
6782,-44.921875
6783,-44.921875
6784,-44.921875
6785,-41.015625
6786,-42.968750
6787,-44.921875
6788,-41.015625
6789,-44.921875
6790,-42.968750
6791,-44.921875
6792,-48.828125
6793,-44.921875
6794,-44.921875
6795,-44.921875
6796,-44.921875
6797,-41.015625
6798,-44.921875
6799,-41.015625
6800,-44.921875
6801,-52.734375
6802,-44.921875
6803,-48.828125
6804,-44.921875
6805,-44.921875
6806,-48.828125
6807,-44.921875
6808,-48.828125
6809,-44.921875
6810,-44.921875
6811,-44.921875
6812,-44.921875
6813,-44.921875
6814,-44.921875
6815,-44.921875
6816,-46.875000
6817,-44.921875
6818,-44.921875
6819,-44.921875
6820,-44.921875
6821,-44.921875
6822,-44.921875
6823,-44.921875
6824,-44.921875
6825,-44.921875
6826,-44.921875
6827,-44.921875
6828,-46.875000
6829,-44.921875
6830,-44.921875
6831,-44.921875
6832,-44.921875
6833,-46.875000
6834,-44.921875
6835,-42.968750
6836,-46.875000
6837,-44.921875
6838,-46.875000
6839,-44.921875
6840,-46.875000
6841,-46.875000
6842,-46.875000
6843,-44.921875
6844,-44.921875
6845,-44.921875
6846,-46.875000
6847,-44.921875
6848,-46.875000
6849,-46.875000
6850,-44.921875
6851,-46.875000
6852,-46.875000
6853,-50.781250
6854,-44.921875
6855,-46.875000
6856,-46.875000
6857,-44.921875
6858,-46.875000
6859,-44.921875
6860,-48.828125
6861,-46.875000
6862,-44.921875
6863,-44.921875
6864,-46.875000
6865,-41.015625
6866,-46.875000
6867,-46.875000
6868,-48.828125
6869,-41.015625
6870,-44.921875
6871,-46.875000
6872,-44.921875
6873,-44.921875
6874,-44.921875
6875,-44.921875
6876,-46.875000
6877,-46.875000
6878,-44.921875
6879,-48.828125
6880,-44.921875
6881,-48.828125
6882,-46.875000
6883,-46.875000
6884,-50.781250
6885,-44.921875
6886,-48.828125
6887,-48.828125
6888,-48.828125
6889,-46.875000
6890,-46.875000
6891,-44.921875
6892,-46.875000
6893,-48.828125
6894,-48.828125
6895,-44.921875
6896,-50.781250
6897,-46.875000
6898,-48.828125
6899,-44.921875
6900,-48.828125
6901,-52.734375
6902,-46.875000
6903,-48.828125
6904,-48.828125
6905,-46.875000
6906,-48.828125
6907,-48.828125
6908,-48.828125
6909,-50.781250
6910,-50.781250
6911,-48.828125
6912,-48.828125
6913,-48.828125
6914,-48.828125
6915,-46.875000
6916,-48.828125
6917,-44.921875
6918,-48.828125
6919,-48.828125
6920,-46.875000
6921,-50.781250
6922,-46.875000
6923,-46.875000
6924,-50.781250
6925,-46.875000
6926,-48.828125
6927,-46.875000
6928,-48.828125
6929,-50.781250
6930,-46.875000
6931,-48.828125
6932,-50.781250
6933,-50.781250
6934,-48.828125
6935,-46.875000
6936,-48.828125
6937,-48.828125
6938,-50.781250
6939,-52.734375
6940,-48.828125
6941,-48.828125
6942,-48.828125
6943,-48.828125
6944,-52.734375
6945,-46.875000
6946,-48.828125
6947,-48.828125
6948,-48.828125
6949,-52.734375
6950,-46.875000
6951,-52.734375
6952,-48.828125
6953,-48.828125
6954,-48.828125
6955,-48.828125
6956,-50.781250
6957,-48.828125
6958,-50.781250
6959,-48.828125
6960,-48.828125
6961,-50.781250
6962,-52.734375
6963,-50.781250
6964,-50.781250
6965,-52.734375
6966,-50.781250
6967,-52.734375
6968,-48.828125
6969,-50.781250
6970,-48.828125
6971,-54.687500
6972,-48.828125
6973,-50.781250
6974,-50.781250
6975,-46.875000
6976,-48.828125
6977,-44.921875
6978,-52.734375
6979,-52.734375
6980,-52.734375
6981,-48.828125
6982,-54.687500
6983,-48.828125
6984,-48.828125
6985,-48.828125
6986,-48.828125
6987,-52.734375
6988,-50.781250
6989,-52.734375
6990,-48.828125
6991,-52.734375
6992,-52.734375
6993,-50.781250
6994,-52.734375
6995,-48.828125
6996,-50.781250
6997,-50.781250
6998,-48.828125
6999,-54.687500
7000,-52.734375
7001,-48.828125
7002,-50.781250
7003,-50.781250
7004,-54.687500
7005,-50.781250
7006,-48.828125
7007,-52.734375
7008,-48.828125
7009,-50.781250
7010,-50.781250
7011,-48.828125
7012,-56.640625
7013,-50.781250
7014,-52.734375
7015,-66.406250
7016,-52.734375
7017,-52.734375
7018,-52.734375
7019,-50.781250
7020,-50.781250
7021,-52.734375
7022,-52.734375
7023,-48.828125
7024,-54.687500
7025,-50.781250
7026,-50.781250
7027,-50.781250
7028,-50.781250
7029,-50.781250
7030,-52.734375
7031,-48.828125
7032,-52.734375
7033,-50.781250
7034,-50.781250
7035,-52.734375
7036,-48.828125
7037,-54.687500
7038,-50.781250
7039,-52.734375
7040,-50.781250
7041,-48.828125
7042,-54.687500
7043,-48.828125
7044,-50.781250
7045,-54.687500
7046,-52.734375
7047,-52.734375
7048,-52.734375
7049,-52.734375
7050,-50.781250
7051,-50.781250
7052,-52.734375
7053,-50.781250
7054,-54.687500
7055,-50.781250
7056,-48.828125
7057,-52.734375
7058,-52.734375
7059,-50.781250
7060,-52.734375
7061,-50.781250
7062,-50.781250
7063,-62.500000
7064,-52.734375
7065,-48.828125
7066,-52.734375
7067,-48.828125
7068,-50.781250
7069,-52.734375
7070,-52.734375
7071,-50.781250
7072,-50.781250
7073,-52.734375
7074,-54.687500
7075,-48.828125
7076,-50.781250
7077,-52.734375
7078,-48.828125
7079,-52.734375
7080,-52.734375
7081,-50.781250
7082,-50.781250
7083,-48.828125
7084,-50.781250
7085,-50.781250
7086,-50.781250
7087,-54.687500
7088,-54.687500
7089,-48.828125
7090,-44.921875
7091,-48.828125
7092,-48.828125
7093,-48.828125
7094,-52.734375
7095,-48.828125
7096,-50.781250
7097,-48.828125
7098,-52.734375
7099,-52.734375
7100,-48.828125
7101,-52.734375
7102,-50.781250
7103,-50.781250
7104,-52.734375
7105,-60.546875
7106,-48.828125
7107,-48.828125
7108,-48.828125
7109,-52.734375
7110,-48.828125
7111,-50.781250
7112,-48.828125
7113,-48.828125
7114,-54.687500
7115,-48.828125
7116,-48.828125
7117,-48.828125
7118,-48.828125
7119,-48.828125
7120,-46.875000
7121,-48.828125
7122,-48.828125
7123,-46.875000
7124,-50.781250
7125,-46.875000
7126,-48.828125
7127,-46.875000
7128,-48.828125
7129,-50.781250
7130,-46.875000
7131,-44.921875
7132,-48.828125
7133,-46.875000
7134,-48.828125
7135,-46.875000
7136,-48.828125
7137,-46.875000
7138,-46.875000
7139,-46.875000
7140,-44.921875
7141,-44.921875
7142,-44.921875
7143,-41.015625
7144,-44.921875
7145,-44.921875
7146,-46.875000
7147,-44.921875
7148,-44.921875
7149,-42.968750
7150,-41.015625
7151,-44.921875
7152,-44.921875
7153,-44.921875
7154,-44.921875
7155,-41.015625
7156,-44.921875
7157,-41.015625
7158,-41.015625
7159,-44.921875
7160,-41.015625
7161,-41.015625
7162,-42.968750
7163,-41.015625
7164,-42.968750
7165,-35.156250
7166,-41.015625
7167,-41.015625
7168,-41.015625
7169,-44.921875
7170,-44.921875
7171,-41.015625
7172,-41.015625
7173,-41.015625
7174,-44.921875
7175,-41.015625
7176,-41.015625
7177,-41.015625
7178,-41.015625
7179,-44.921875
7180,-41.015625
7181,-44.921875
7182,-44.921875
7183,-41.015625
7184,-41.015625
7185,-41.015625
7186,-41.015625
7187,-41.015625
7188,-41.015625
7189,-41.015625
7190,-41.015625
7191,-41.015625
7192,-44.921875
7193,-41.015625
7194,-44.921875
7195,-44.921875
7196,-41.015625
7197,-41.015625
7198,-41.015625
7199,-42.968750
7200,-41.015625
7201,-42.968750
7202,-44.921875
7203,-42.968750
7204,-44.921875
7205,-41.015625
7206,-41.015625
7207,-41.015625
7208,-46.875000
7209,-41.015625
7210,-41.015625
7211,-44.921875
7212,-39.062500
7213,-41.015625
7214,-41.015625
7215,-42.968750
7216,-41.015625
7217,-41.015625
7218,-44.921875
7219,-41.015625
7220,-41.015625
7221,-41.015625
7222,-41.015625
7223,-42.968750
7224,-41.015625
7225,-50.781250
7226,-44.921875
7227,-41.015625
7228,-42.968750
7229,-41.015625
7230,-39.062500
7231,-42.968750
7232,-41.015625
7233,-41.015625
7234,-41.015625
7235,-41.015625
7236,-41.015625
7237,-41.015625
7238,-41.015625
7239,-41.015625
7240,-41.015625
7241,-42.968750
7242,-41.015625
7243,-41.015625
7244,-41.015625
7245,-41.015625
7246,-41.015625
7247,-41.015625
7248,-41.015625
7249,-41.015625
7250,-41.015625
7251,-42.968750
7252,-41.015625
7253,-41.015625
7254,-41.015625
7255,-41.015625
7256,-41.015625
7257,-41.015625
7258,-41.015625
7259,-41.015625
7260,-41.015625
7261,-42.968750
7262,-41.015625
7263,-41.015625
7264,-41.015625
7265,-41.015625
7266,-44.921875
7267,-41.015625
7268,-41.015625
7269,-41.015625
7270,-41.015625
7271,-41.015625
7272,-54.687500
7273,-41.015625
7274,-41.015625
7275,-41.015625
7276,-41.015625
7277,-41.015625
7278,-41.015625
7279,-42.968750
7280,-41.015625
7281,-29.296875
7282,-41.015625
7283,-41.015625
7284,-39.062500
7285,-41.015625
7286,-41.015625
7287,-39.062500
7288,-41.015625
7289,-41.015625
7290,-41.015625
7291,-41.015625
7292,-41.015625
7293,-41.015625
7294,-41.015625
7295,-41.015625
7296,-41.015625
7297,-41.015625
7298,-44.921875
7299,-41.015625
7300,-44.921875
7301,-41.015625
7302,-33.203125
7303,-42.968750
7304,-41.015625
7305,-42.968750
7306,-41.015625
7307,-41.015625
7308,-41.015625
7309,-41.015625
7310,-41.015625
7311,-41.015625
7312,-41.015625
7313,-41.015625
7314,-41.015625
7315,-41.015625
7316,-41.015625
7317,-41.015625
7318,-44.921875
7319,-41.015625
7320,-41.015625
7321,-44.921875
7322,-41.015625
7323,-42.968750
7324,-41.015625
7325,-41.015625
7326,-41.015625
7327,-41.015625
7328,-44.921875
7329,-41.015625
7330,-41.015625
7331,-41.015625
7332,-39.062500
7333,-42.968750
7334,-41.015625
7335,-41.015625
7336,-42.968750
7337,-41.015625
7338,-41.015625
7339,-41.015625
7340,-41.015625
7341,-41.015625
7342,-39.062500
7343,-44.921875
7344,-41.015625
7345,-44.921875
7346,-44.921875
7347,-41.015625
7348,-44.921875
7349,-41.015625
7350,-44.921875
7351,-42.968750
7352,-41.015625
7353,-44.921875
7354,-41.015625
7355,-44.921875
7356,-44.921875
7357,-41.015625
7358,-41.015625
7359,-39.062500
7360,-44.921875
7361,-41.015625
7362,-41.015625
7363,-41.015625
7364,-41.015625
7365,-41.015625
7366,-42.968750
7367,-41.015625
7368,-41.015625
7369,-41.015625
7370,-41.015625
7371,-41.015625
7372,-41.015625
7373,-41.015625
7374,-39.062500
7375,-41.015625
7376,-41.015625
7377,-39.062500
7378,-42.968750
7379,-39.062500
7380,-39.062500
7381,-41.015625
7382,-41.015625
7383,-42.968750
7384,-41.015625
7385,-44.921875
7386,-41.015625
7387,-41.015625
7388,-44.921875
7389,-41.015625
7390,-41.015625
7391,-41.015625
7392,-29.296875
7393,-41.015625
7394,-41.015625
7395,-41.015625
7396,-41.015625
7397,-41.015625
7398,-42.968750
7399,-41.015625
7400,-41.015625
7401,-41.015625
7402,-41.015625
7403,-41.015625
7404,-41.015625
7405,-42.968750
7406,-41.015625
7407,-41.015625
7408,-42.968750
7409,-41.015625
7410,-41.015625
7411,-42.968750
7412,-41.015625
7413,-44.921875
7414,-41.015625
7415,-41.015625
7416,-44.921875
7417,-41.015625
7418,-42.968750
7419,-41.015625
7420,-41.015625
7421,-41.015625
7422,-33.203125
7423,-44.921875
7424,-41.015625
7425,-41.015625
7426,-41.015625
7427,-41.015625
7428,-44.921875
7429,-39.062500
7430,-44.921875
7431,-37.109375
7432,-41.015625
7433,-44.921875
7434,-41.015625
7435,-44.921875
7436,-41.015625
7437,-41.015625
7438,-41.015625
7439,-41.015625
7440,-44.921875
7441,-41.015625
7442,-42.968750
7443,-42.968750
7444,-42.968750
7445,-44.921875
7446,-41.015625
7447,-44.921875
7448,-41.015625
7449,-41.015625
7450,-44.921875
7451,-41.015625
7452,-41.015625
7453,-41.015625
7454,-41.015625
7455,-41.015625
7456,-44.921875
7457,-41.015625
7458,-41.015625
7459,-44.921875
7460,-41.015625
7461,-44.921875
7462,-44.921875
7463,-41.015625
7464,-41.015625
7465,-41.015625
7466,-41.015625
7467,-42.968750
7468,-41.015625
7469,-44.921875
7470,-41.015625
7471,-39.062500
7472,-42.968750
7473,-37.109375
7474,-44.921875
7475,-41.015625
7476,-41.015625
7477,-41.015625
7478,-39.062500
7479,-46.875000
7480,-41.015625
7481,-41.015625
7482,-41.015625
7483,-41.015625
7484,-41.015625
7485,-42.968750
7486,-41.015625
7487,-41.015625
7488,-42.968750
7489,-41.015625
7490,-46.875000
7491,-41.015625
7492,-41.015625
7493,-41.015625
7494,-41.015625
7495,-44.921875
7496,-39.062500
7497,-44.921875
7498,-41.015625
7499,-41.015625
7500,-44.921875
7501,-41.015625
7502,-41.015625
7503,-41.015625
7504,-41.015625
7505,-42.968750
7506,-41.015625
7507,-41.015625
7508,-41.015625
7509,-41.015625
7510,-44.921875
7511,-41.015625
7512,-41.015625
7513,-41.015625
7514,-41.015625
7515,-42.968750
7516,-41.015625
7517,-41.015625
7518,-41.015625
7519,-41.015625
7520,-44.921875
7521,-41.015625
7522,-41.015625
7523,-41.015625
7524,-41.015625
7525,-44.921875
7526,-41.015625
7527,-41.015625
7528,-44.921875
7529,-48.828125
7530,-44.921875
7531,-41.015625
7532,-41.015625
7533,-44.921875
7534,-44.921875
7535,-44.921875
7536,-41.015625
7537,-44.921875
7538,-41.015625
7539,-41.015625
7540,-41.015625
7541,-41.015625
7542,-44.921875
7543,-41.015625
7544,-39.062500
7545,-41.015625
7546,-33.203125
7547,-42.968750
7548,-44.921875
7549,-44.921875
7550,-41.015625
7551,-44.921875
7552,-44.921875
7553,-44.921875
7554,-44.921875
7555,-41.015625
7556,-41.015625
7557,-44.921875
7558,-44.921875
7559,-44.921875
7560,-44.921875
7561,-41.015625
7562,-44.921875
7563,-41.015625
7564,-41.015625
7565,-44.921875
7566,-41.015625
7567,-44.921875
7568,-44.921875
7569,-41.015625
7570,-44.921875
7571,-41.015625
7572,-46.875000
7573,-44.921875
7574,-41.015625
7575,-41.015625
7576,-41.015625
7577,-44.921875
7578,-44.921875
7579,-41.015625
7580,-44.921875
7581,-44.921875
7582,-44.921875
7583,-44.921875
7584,-44.921875
7585,-44.921875
7586,-41.015625
7587,-44.921875
7588,-44.921875
7589,-41.015625
7590,-44.921875
7591,-41.015625
7592,-44.921875
7593,-44.921875
7594,-41.015625
7595,-44.921875
7596,-44.921875
7597,-44.921875
7598,-44.921875
7599,-44.921875
7600,-48.828125
7601,-41.015625
7602,-44.921875
7603,-44.921875
7604,-48.828125
7605,-44.921875
7606,-48.828125
7607,-46.875000
7608,-44.921875
7609,-44.921875
7610,-46.875000
7611,-44.921875
7612,-44.921875
7613,-46.875000
7614,-48.828125
7615,-46.875000
7616,-44.921875
7617,-46.875000
7618,-44.921875
7619,-44.921875
7620,-46.875000
7621,-44.921875
7622,-44.921875
7623,-44.921875
7624,-44.921875
7625,-46.875000
7626,-44.921875
7627,-46.875000
7628,-46.875000
7629,-46.875000
7630,-46.875000
7631,-44.921875
7632,-46.875000
7633,-46.875000
7634,-44.921875
7635,-46.875000
7636,-44.921875
7637,-48.828125
7638,-46.875000
7639,-44.921875
7640,-46.875000
7641,-44.921875
7642,-44.921875
7643,-44.921875
7644,-44.921875
7645,-48.828125
7646,-44.921875
7647,-48.828125
7648,-44.921875
7649,-48.828125
7650,-46.875000
7651,-44.921875
7652,-46.875000
7653,-44.921875
7654,-48.828125
7655,-48.828125
7656,-44.921875
7657,-48.828125
7658,-44.921875
7659,-44.921875
7660,-50.781250
7661,-44.921875
7662,-46.875000
7663,-44.921875
7664,-48.828125
7665,-44.921875
7666,-44.921875
7667,-46.875000
7668,-44.921875
7669,-44.921875
7670,-46.875000
7671,-44.921875
7672,-44.921875
7673,-46.875000
7674,-44.921875
7675,-46.875000
7676,-44.921875
7677,-44.921875
7678,-46.875000
7679,-46.875000
7680,-44.921875
7681,-41.015625
7682,-44.921875
7683,-39.062500
7684,-44.921875
7685,-44.921875
7686,-44.921875
7687,-44.921875
7688,-48.828125
7689,-44.921875
7690,-44.921875
7691,-44.921875
7692,-46.875000
7693,-48.828125
7694,-44.921875
7695,-50.781250
7696,-44.921875
7697,-48.828125
7698,-48.828125
7699,-44.921875
7700,-48.828125
7701,-42.968750
7702,-46.875000
7703,-46.875000
7704,-46.875000
7705,-48.828125
7706,-44.921875
7707,-50.781250
7708,-44.921875
7709,-48.828125
7710,-46.875000
7711,-46.875000
7712,-50.781250
7713,-44.921875
7714,-50.781250
7715,-44.921875
7716,-46.875000
7717,-48.828125
7718,-44.921875
7719,-48.828125
7720,-46.875000
7721,-48.828125
7722,-50.781250
7723,-44.921875
7724,-48.828125
7725,-44.921875
7726,-46.875000
7727,-50.781250
7728,-44.921875
7729,-50.781250
7730,-46.875000
7731,-46.875000
7732,-44.921875
7733,-48.828125
7734,-48.828125
7735,-48.828125
7736,-48.828125
7737,-48.828125
7738,-48.828125
7739,-46.875000
7740,-46.875000
7741,-48.828125
7742,-48.828125
7743,-54.687500
7744,-48.828125
7745,-48.828125
7746,-50.781250
7747,-52.734375
7748,-46.875000
7749,-46.875000
7750,-48.828125
7751,-46.875000
7752,-48.828125
7753,-46.875000
7754,-48.828125
7755,-48.828125
7756,-44.921875
7757,-48.828125
7758,-48.828125
7759,-48.828125
7760,-48.828125
7761,-48.828125
7762,-48.828125
7763,-48.828125
7764,-48.828125
7765,-48.828125
7766,-50.781250
7767,-48.828125
7768,-44.921875
7769,-46.875000
7770,-48.828125
7771,-48.828125
7772,-48.828125
7773,-41.015625
7774,-46.875000
7775,-50.781250
7776,-46.875000
7777,-48.828125
7778,-50.781250
7779,-46.875000
7780,-48.828125
7781,-48.828125
7782,-48.828125
7783,-48.828125
7784,-44.921875
7785,-48.828125
7786,-48.828125
7787,-52.734375
7788,-48.828125
7789,-48.828125
7790,-48.828125
7791,-48.828125
7792,-50.781250
7793,-48.828125
7794,-46.875000
7795,-48.828125
7796,-48.828125
7797,-48.828125
7798,-50.781250
7799,-46.875000
7800,-48.828125
7801,-48.828125
7802,-50.781250
7803,-48.828125
7804,-46.875000
7805,-52.734375
7806,-48.828125
7807,-48.828125
7808,-50.781250
7809,-48.828125
7810,-50.781250
7811,-48.828125
7812,-54.687500
7813,-50.781250
7814,-48.828125
7815,-48.828125
7816,-48.828125
7817,-48.828125
7818,-46.875000
7819,-48.828125
7820,-52.734375
7821,-48.828125
7822,-48.828125
7823,-48.828125
7824,-46.875000
7825,-46.875000
7826,-46.875000
7827,-48.828125
7828,-48.828125
7829,-48.828125
7830,-48.828125
7831,-42.968750
7832,-50.781250
7833,-50.781250
7834,-48.828125
7835,-48.828125
7836,-48.828125
7837,-46.875000
7838,-48.828125
7839,-41.015625
7840,-50.781250
7841,-48.828125
7842,-50.781250
7843,-50.781250
7844,-48.828125
7845,-48.828125
7846,-52.734375
7847,-50.781250
7848,-48.828125
7849,-50.781250
7850,-50.781250
7851,-48.828125
7852,-54.687500
7853,-48.828125
7854,-52.734375
7855,-56.640625
7856,-48.828125
7857,-50.781250
7858,-48.828125
7859,-48.828125
7860,-48.828125
7861,-50.781250
7862,-54.687500
7863,-48.828125
7864,-52.734375
7865,-50.781250
7866,-48.828125
7867,-48.828125
7868,-48.828125
7869,-50.781250
7870,-52.734375
7871,-50.781250
7872,-54.687500
7873,-52.734375
7874,-50.781250
7875,-52.734375
7876,-50.781250
7877,-50.781250
7878,-48.828125
7879,-50.781250
7880,-50.781250
7881,-48.828125
7882,-48.828125
7883,-48.828125
7884,-48.828125
7885,-50.781250
7886,-48.828125
7887,-54.687500
7888,-48.828125
7889,-50.781250
7890,-52.734375
7891,-48.828125
7892,-50.781250
7893,-54.687500
7894,-48.828125
7895,-52.734375
7896,-50.781250
7897,-60.546875
7898,-52.734375
7899,-48.828125
7900,-52.734375
7901,-48.828125
7902,-52.734375
7903,-48.828125
7904,-50.781250
7905,-48.828125
7906,-48.828125
7907,-52.734375
7908,-50.781250
7909,-52.734375
7910,-54.687500
7911,-48.828125
7912,-54.687500
7913,-48.828125
7914,-44.921875
7915,-50.781250
7916,-50.781250
7917,-54.687500
7918,-46.875000
7919,-48.828125
7920,-52.734375
7921,-50.781250
7922,-50.781250
7923,-52.734375
7924,-50.781250
7925,-52.734375
7926,-50.781250
7927,-52.734375
7928,-50.781250
7929,-48.828125
7930,-52.734375
7931,-48.828125
7932,-52.734375
7933,-52.734375
7934,-52.734375
7935,-54.687500
7936,-50.781250
7937,-52.734375
7938,-48.828125
7939,-52.734375
7940,-48.828125
7941,-48.828125
7942,-54.687500
7943,-48.828125
7944,-56.640625
7945,-48.828125
7946,-56.640625
7947,-52.734375
7948,-48.828125
7949,-48.828125
7950,-52.734375
7951,-50.781250
7952,-50.781250
7953,-56.640625
7954,-48.828125
7955,-50.781250
7956,-52.734375
7957,-52.734375
7958,-50.781250
7959,-54.687500
7960,-50.781250
7961,-52.734375
7962,-54.687500
7963,-48.828125
7964,-54.687500
7965,-50.781250
7966,-48.828125
7967,-52.734375
7968,-48.828125
7969,-48.828125
7970,-54.687500
7971,-52.734375
7972,-52.734375
7973,-50.781250
7974,-56.640625
7975,-48.828125
7976,-52.734375
7977,-52.734375
7978,-50.781250
7979,-54.687500
7980,-50.781250
7981,-48.828125
7982,-50.781250
7983,-44.921875
7984,-50.781250
7985,-54.687500
7986,-52.734375
7987,-50.781250
7988,-52.734375
7989,-50.781250
7990,-50.781250
7991,-48.828125
7992,-54.687500
7993,-50.781250
7994,-52.734375
7995,-54.687500
7996,-50.781250
7997,-52.734375
7998,-52.734375
7999,-50.781250
8000,-52.734375
8001,-50.781250
8002,-50.781250
8003,-54.687500
8004,-50.781250
8005,-56.640625
8006,-48.828125
8007,-54.687500
8008,-52.734375
8009,-50.781250
8010,-56.640625
8011,-54.687500
8012,-54.687500
8013,-48.828125
8014,-50.781250
8015,-54.687500
8016,-52.734375
8017,-54.687500
8018,-52.734375
8019,-54.687500
8020,-50.781250
8021,-54.687500
8022,-52.734375
8023,-54.687500
8024,-54.687500
8025,-52.734375
8026,-52.734375
8027,-52.734375
8028,-54.687500
8029,-48.828125
8030,-54.687500
8031,-54.687500
8032,-56.640625
8033,-54.687500
8034,-50.781250
8035,-54.687500
8036,-50.781250
8037,-54.687500
8038,-48.828125
8039,-48.828125
8040,-54.687500
8041,-48.828125
8042,-54.687500
8043,-52.734375
8044,-54.687500
8045,-54.687500
8046,-50.781250
8047,-54.687500
8048,-52.734375
8049,-50.781250
8050,-50.781250
8051,-54.687500
8052,-54.687500
8053,-54.687500
8054,-52.734375
8055,-56.640625
8056,-54.687500
8057,-54.687500
8058,-54.687500
8059,-54.687500
8060,-54.687500
8061,-50.781250
8062,-54.687500
8063,-54.687500
8064,-54.687500
8065,-54.687500
8066,-54.687500
8067,-54.687500
8068,-64.453125
8069,-54.687500
8070,-56.640625
8071,-52.734375
8072,-52.734375
8073,-48.828125
8074,-50.781250
8075,-54.687500
8076,-48.828125
8077,-52.734375
8078,-50.781250
8079,-54.687500
8080,-54.687500
8081,-50.781250
8082,-56.640625
8083,-50.781250
8084,-54.687500
8085,-54.687500
8086,-54.687500
8087,-54.687500
8088,-54.687500
8089,-54.687500
8090,-56.640625
8091,-52.734375
8092,-56.640625
8093,-52.734375
8094,-54.687500
8095,-52.734375
8096,-52.734375
8097,-54.687500
8098,-46.875000
8099,-56.640625
8100,-54.687500
8101,-54.687500
8102,-56.640625
8103,-54.687500
8104,-54.687500
8105,-54.687500
8106,-54.687500
8107,-52.734375
8108,-52.734375
8109,-56.640625
8110,-56.640625
8111,-52.734375
8112,-54.687500
8113,-54.687500
8114,-50.781250
8115,-54.687500
8116,-54.687500
8117,-54.687500
8118,-52.734375
8119,-56.640625
8120,-56.640625
8121,-54.687500
8122,-56.640625
8123,-48.828125
8124,-54.687500
8125,-54.687500
8126,-50.781250
8127,-56.640625
8128,-44.921875
8129,-56.640625
8130,-54.687500
8131,-52.734375
8132,-56.640625
8133,-52.734375
8134,-52.734375
8135,-52.734375
8136,-54.687500
8137,-48.828125
8138,-54.687500
8139,-54.687500
8140,-54.687500
8141,-50.781250
8142,-54.687500
8143,-52.734375
8144,-54.687500
8145,-46.875000
8146,-56.640625
8147,-56.640625
8148,-50.781250
8149,-54.687500
8150,-54.687500
8151,-52.734375
8152,-54.687500
8153,-50.781250
8154,-54.687500
8155,-54.687500
8156,-54.687500
8157,-48.828125
8158,-52.734375
8159,-52.734375
8160,-52.734375
8161,-54.687500
8162,-52.734375
8163,-52.734375
8164,-44.921875
8165,-52.734375
8166,-50.781250
8167,-54.687500
8168,-52.734375
8169,-52.734375
8170,-52.734375
8171,-52.734375
8172,-56.640625
8173,-48.828125
8174,-50.781250
8175,-52.734375
8176,-48.828125
8177,-52.734375
8178,-48.828125
8179,-48.828125
8180,-48.828125
8181,-48.828125
8182,-52.734375
8183,-48.828125
8184,-48.828125
8185,-50.781250
8186,-50.781250
8187,-48.828125
8188,-48.828125
8189,-52.734375
8190,-48.828125
8191,-50.781250
8192,-50.781250
8193,-48.828125
8194,-48.828125
8195,-48.828125
8196,-50.781250
8197,-52.734375
8198,-52.734375
8199,-50.781250
8200,-50.781250
8201,-54.687500
8202,-54.687500
8203,-48.828125
8204,-50.781250
8205,-52.734375
8206,-52.734375
8207,-48.828125
8208,-50.781250
8209,-52.734375
8210,-48.828125
8211,-50.781250
8212,-48.828125
8213,-48.828125
8214,-48.828125
8215,-48.828125
8216,-52.734375
8217,-48.828125
8218,-48.828125
8219,-54.687500
8220,-48.828125
8221,-54.687500
8222,-52.734375
8223,-48.828125
8224,-52.734375
8225,-48.828125
8226,-48.828125
8227,-50.781250
8228,-48.828125
8229,-48.828125
8230,-48.828125
8231,-48.828125
8232,-48.828125
8233,-48.828125
8234,-48.828125
8235,-54.687500
8236,-44.921875
8237,-48.828125
8238,-48.828125
8239,-48.828125
8240,-48.828125
8241,-48.828125
8242,-48.828125
8243,-48.828125
8244,-46.875000
8245,-50.781250
8246,-48.828125
8247,-48.828125
8248,-48.828125
8249,-48.828125
8250,-48.828125
8251,-46.875000
8252,-48.828125
8253,-48.828125
8254,-50.781250
8255,-50.781250
8256,-48.828125
8257,-50.781250
8258,-46.875000
8259,-48.828125
8260,-48.828125
8261,-50.781250
8262,-48.828125
8263,-48.828125
8264,-48.828125
8265,-46.875000
8266,-48.828125
8267,-48.828125
8268,-48.828125
8269,-44.921875
8270,-48.828125
8271,-46.875000
8272,-48.828125
8273,-50.781250
8274,-46.875000
8275,-50.781250
8276,-44.921875
8277,-48.828125
8278,-44.921875
8279,-48.828125
8280,-48.828125
8281,-46.875000
8282,-48.828125
8283,-48.828125
8284,-48.828125
8285,-48.828125
8286,-48.828125
8287,-48.828125
8288,-50.781250
8289,-48.828125
8290,-48.828125
8291,-46.875000
8292,-48.828125
8293,-50.781250
8294,-48.828125
8295,-48.828125
8296,-44.921875
8297,-52.734375
8298,-50.781250
8299,-44.921875
8300,-44.921875
8301,-46.875000
8302,-50.781250
8303,-48.828125
8304,-44.921875
8305,-48.828125
8306,-48.828125
8307,-50.781250
8308,-50.781250
8309,-52.734375
8310,-48.828125
8311,-48.828125
8312,-48.828125
8313,-44.921875
8314,-46.875000
8315,-48.828125
8316,-48.828125
8317,-44.921875
8318,-48.828125
8319,-46.875000
8320,-46.875000
8321,-44.921875
8322,-46.875000
8323,-48.828125
8324,-46.875000
8325,-44.921875
8326,-48.828125
8327,-48.828125
8328,-46.875000
8329,-48.828125
8330,-46.875000
8331,-44.921875
8332,-44.921875
8333,-48.828125
8334,-46.875000
8335,-46.875000
8336,-48.828125
8337,-46.875000
8338,-48.828125
8339,-50.781250
8340,-48.828125
8341,-48.828125
8342,-54.687500
8343,-48.828125
8344,-46.875000
8345,-46.875000
8346,-46.875000
8347,-48.828125
8348,-48.828125
8349,-50.781250
8350,-46.875000
8351,-48.828125
8352,-48.828125
8353,-48.828125
8354,-48.828125
8355,-42.968750
8356,-50.781250
8357,-46.875000
8358,-46.875000
8359,-46.875000
8360,-48.828125
8361,-54.687500
8362,-46.875000
8363,-48.828125
8364,-46.875000
8365,-46.875000
8366,-46.875000
8367,-46.875000
8368,-52.734375
8369,-50.781250
8370,-46.875000
8371,-48.828125
8372,-33.203125
8373,-44.921875
8374,-48.828125
8375,-44.921875
8376,-48.828125
8377,-46.875000
8378,-46.875000
8379,-46.875000
8380,-44.921875
8381,-46.875000
8382,-46.875000
8383,-48.828125
8384,-48.828125
8385,-46.875000
8386,-48.828125
8387,-50.781250
8388,-41.015625
8389,-48.828125
8390,-46.875000
8391,-46.875000
8392,-46.875000
8393,-44.921875
8394,-46.875000
8395,-46.875000
8396,-46.875000
8397,-48.828125
8398,-50.781250
8399,-48.828125
8400,-46.875000
8401,-48.828125
8402,-46.875000
8403,-44.921875
8404,-48.828125
8405,-48.828125
8406,-44.921875
8407,-46.875000
8408,-46.875000
8409,-46.875000
8410,-44.921875
8411,-46.875000
8412,-48.828125
8413,-46.875000
8414,-48.828125
8415,-48.828125
8416,-48.828125
8417,-48.828125
8418,-46.875000
8419,-46.875000
8420,-46.875000
8421,-44.921875
8422,-46.875000
8423,-46.875000
8424,-48.828125
8425,-44.921875
8426,-48.828125
8427,-46.875000
8428,-44.921875
8429,-46.875000
8430,-48.828125
8431,-46.875000
8432,-52.734375
8433,-46.875000
8434,-44.921875
8435,-48.828125
8436,-46.875000
8437,-46.875000
8438,-44.921875
8439,-46.875000
8440,-44.921875
8441,-48.828125
8442,-46.875000
8443,-46.875000
8444,-44.921875
8445,-44.921875
8446,-44.921875
8447,-48.828125
8448,-46.875000
8449,-46.875000
8450,-48.828125
8451,-44.921875
8452,-48.828125
8453,-44.921875
8454,-50.781250
8455,-48.828125
8456,-46.875000
8457,-48.828125
8458,-50.781250
8459,-46.875000
8460,-48.828125
8461,-46.875000
8462,-56.640625
8463,-44.921875
8464,-48.828125
8465,-44.921875
8466,-44.921875
8467,-46.875000
8468,-44.921875
8469,-48.828125
8470,-44.921875
8471,-48.828125
8472,-46.875000
8473,-44.921875
8474,-46.875000
8475,-46.875000
8476,-46.875000
8477,-46.875000
8478,-44.921875
8479,-44.921875
8480,-46.875000
8481,-44.921875
8482,-44.921875
8483,-46.875000
8484,-46.875000
8485,-48.828125
8486,-44.921875
8487,-44.921875
8488,-46.875000
8489,-46.875000
8490,-46.875000
8491,-44.921875
8492,-41.015625
8493,-46.875000
8494,-46.875000
8495,-44.921875
8496,-46.875000
8497,-48.828125
8498,-46.875000
8499,-44.921875
8500,-48.828125
8501,-44.921875
8502,-48.828125
8503,-48.828125
8504,-44.921875
8505,-46.875000
8506,-44.921875
8507,-48.828125
8508,-48.828125
8509,-58.593750
8510,-44.921875
8511,-48.828125
8512,-48.828125
8513,-48.828125
8514,-46.875000
8515,-48.828125
8516,-46.875000
8517,-44.921875
8518,-48.828125
8519,-44.921875
8520,-46.875000
8521,-44.921875
8522,-42.968750
8523,-44.921875
8524,-44.921875
8525,-44.921875
8526,-44.921875
8527,-46.875000
8528,-46.875000
8529,-44.921875
8530,-46.875000
8531,-46.875000
8532,-44.921875
8533,-41.015625
8534,-44.921875
8535,-44.921875
8536,-44.921875
8537,-44.921875
8538,-46.875000
8539,-41.015625
8540,-46.875000
8541,-46.875000
8542,-44.921875
8543,-48.828125
8544,-44.921875
8545,-46.875000
8546,-48.828125
8547,-44.921875
8548,-46.875000
8549,-48.828125
8550,-48.828125
8551,-48.828125
8552,-44.921875
8553,-46.875000
8554,-44.921875
8555,-46.875000
8556,-48.828125
8557,-46.875000
8558,-46.875000
8559,-48.828125
8560,-46.875000
8561,-44.921875
8562,-46.875000
8563,-48.828125
8564,-46.875000
8565,-44.921875
8566,-46.875000
8567,-44.921875
8568,-46.875000
8569,-44.921875
8570,-48.828125
8571,-46.875000
8572,-44.921875
8573,-48.828125
8574,-44.921875
8575,-44.921875
8576,-48.828125
8577,-44.921875
8578,-44.921875
8579,-46.875000
8580,-44.921875
8581,-50.781250
8582,-44.921875
8583,-46.875000
8584,-46.875000
8585,-44.921875
8586,-48.828125
8587,-46.875000
8588,-48.828125
8589,-46.875000
8590,-44.921875
8591,-46.875000
8592,-46.875000
8593,-48.828125
8594,-44.921875
8595,-41.015625
8596,-46.875000
8597,-46.875000
8598,-46.875000
8599,-46.875000
8600,-46.875000
8601,-48.828125
8602,-48.828125
8603,-46.875000
8604,-46.875000
8605,-48.828125
8606,-48.828125
8607,-46.875000
8608,-48.828125
8609,-50.781250
8610,-44.921875
8611,-48.828125
8612,-44.921875
8613,-48.828125
8614,-46.875000
8615,-44.921875
8616,-48.828125
8617,-46.875000
8618,-48.828125
8619,-48.828125
8620,-46.875000
8621,-48.828125
8622,-46.875000
8623,-48.828125
8624,-46.875000
8625,-46.875000
8626,-48.828125
8627,-50.781250
8628,-46.875000
8629,-48.828125
8630,-44.921875
8631,-44.921875
8632,-48.828125
8633,-48.828125
8634,-48.828125
8635,-44.921875
8636,-48.828125
8637,-46.875000
8638,-44.921875
8639,-48.828125
8640,-44.921875
8641,-46.875000
8642,-44.921875
8643,-48.828125
8644,-52.734375
8645,-44.921875
8646,-48.828125
8647,-44.921875
8648,-46.875000
8649,-48.828125
8650,-48.828125
8651,-46.875000
8652,-46.875000
8653,-48.828125
8654,-48.828125
8655,-46.875000
8656,-48.828125
8657,-46.875000
8658,-48.828125
8659,-44.921875
8660,-46.875000
8661,-48.828125
8662,-46.875000
8663,-48.828125
8664,-48.828125
8665,-44.921875
8666,-48.828125
8667,-48.828125
8668,-48.828125
8669,-48.828125
8670,-46.875000
8671,-46.875000
8672,-46.875000
8673,-48.828125
8674,-48.828125
8675,-46.875000
8676,-46.875000
8677,-44.921875
8678,-46.875000
8679,-48.828125
8680,-46.875000
8681,-44.921875
8682,-50.781250
8683,-46.875000
8684,-48.828125
8685,-46.875000
8686,-46.875000
8687,-48.828125
8688,-48.828125
8689,-44.921875
8690,-48.828125
8691,-48.828125
8692,-50.781250
8693,-48.828125
8694,-48.828125
8695,-44.921875
8696,-46.875000
8697,-48.828125
8698,-46.875000
8699,-48.828125
8700,-46.875000
8701,-46.875000
8702,-48.828125
8703,-46.875000
8704,-48.828125
8705,-44.921875
8706,-46.875000
8707,-48.828125
8708,-46.875000
8709,-48.828125
8710,-46.875000
8711,-50.781250
8712,-41.015625
8713,-46.875000
8714,-48.828125
8715,-42.968750
8716,-48.828125
8717,-44.921875
8718,-44.921875
8719,-41.015625
8720,-44.921875
8721,-46.875000
8722,-44.921875
8723,-44.921875
8724,-46.875000
8725,-44.921875
8726,-44.921875
8727,-46.875000
8728,-44.921875
8729,-48.828125
8730,-44.921875
8731,-46.875000
8732,-44.921875
8733,-44.921875
8734,-46.875000
8735,-48.828125
8736,-46.875000
8737,-41.015625
8738,-48.828125
8739,-48.828125
8740,-46.875000
8741,-48.828125
8742,-48.828125
8743,-46.875000
8744,-48.828125
8745,-48.828125
8746,-50.781250
8747,-48.828125
8748,-48.828125
8749,-48.828125
8750,-48.828125
8751,-48.828125
8752,-52.734375
8753,-46.875000
8754,-50.781250
8755,-48.828125
8756,-50.781250
8757,-48.828125
8758,-48.828125
8759,-52.734375
8760,-48.828125
8761,-50.781250
8762,-48.828125
8763,-46.875000
8764,-48.828125
8765,-48.828125
8766,-48.828125
8767,-48.828125
8768,-46.875000
8769,-52.734375
8770,-48.828125
8771,-48.828125
8772,-48.828125
8773,-48.828125
8774,-48.828125
8775,-46.875000
8776,-50.781250
8777,-50.781250
8778,-48.828125
8779,-42.968750
8780,-48.828125
8781,-48.828125
8782,-50.781250
8783,-48.828125
8784,-52.734375
8785,-48.828125
8786,-50.781250
8787,-50.781250
8788,-48.828125
8789,-52.734375
8790,-48.828125
8791,-50.781250
8792,-48.828125
8793,-48.828125
8794,-48.828125
8795,-48.828125
8796,-50.781250
8797,-46.875000
8798,-50.781250
8799,-48.828125
8800,-48.828125
8801,-50.781250
8802,-44.921875
8803,-50.781250
8804,-50.781250
8805,-46.875000
8806,-48.828125
8807,-48.828125
8808,-48.828125
8809,-46.875000
8810,-48.828125
8811,-48.828125
8812,-48.828125
8813,-48.828125
8814,-48.828125
8815,-48.828125
8816,-50.781250
8817,-48.828125
8818,-46.875000
8819,-50.781250
8820,-44.921875
8821,-48.828125
8822,-48.828125
8823,-48.828125
8824,-48.828125
8825,-54.687500
8826,-48.828125
8827,-44.921875
8828,-46.875000
8829,-48.828125
8830,-46.875000
8831,-48.828125
8832,-48.828125
8833,-48.828125
8834,-46.875000
8835,-50.781250
8836,-46.875000
8837,-44.921875
8838,-44.921875
8839,-35.156250
8840,-46.875000
8841,-48.828125
8842,-48.828125
8843,-48.828125
8844,-48.828125
8845,-48.828125
8846,-50.781250
8847,-46.875000
8848,-50.781250
8849,-46.875000
8850,-48.828125
8851,-48.828125
8852,-48.828125
8853,-50.781250
8854,-50.781250
8855,-48.828125
8856,-37.109375
8857,-44.921875
8858,-50.781250
8859,-56.640625
8860,-50.781250
8861,-48.828125
8862,-48.828125
8863,-48.828125
8864,-48.828125
8865,-48.828125
8866,-48.828125
8867,-46.875000
8868,-48.828125
8869,-46.875000
8870,-48.828125
8871,-46.875000
8872,-46.875000
8873,-48.828125
8874,-48.828125
8875,-48.828125
8876,-48.828125
8877,-46.875000
8878,-48.828125
8879,-46.875000
8880,-48.828125
8881,-48.828125
8882,-46.875000
8883,-48.828125
8884,-44.921875
8885,-48.828125
8886,-41.015625
8887,-48.828125
8888,-54.687500
8889,-46.875000
8890,-50.781250
8891,-46.875000
8892,-48.828125
8893,-46.875000
8894,-48.828125
8895,-50.781250
8896,-48.828125
8897,-48.828125
8898,-50.781250
8899,-48.828125
8900,-50.781250
8901,-48.828125
8902,-48.828125
8903,-46.875000
8904,-48.828125
8905,-48.828125
8906,-50.781250
8907,-48.828125
8908,-52.734375
8909,-48.828125
8910,-50.781250
8911,-48.828125
8912,-48.828125
8913,-48.828125
8914,-46.875000
8915,-48.828125
8916,-46.875000
8917,-50.781250
8918,-48.828125
8919,-48.828125
8920,-50.781250
8921,-52.734375
8922,-48.828125
8923,-48.828125
8924,-48.828125
8925,-48.828125
8926,-48.828125
8927,-48.828125
8928,-48.828125
8929,-48.828125
8930,-48.828125
8931,-48.828125
8932,-48.828125
8933,-50.781250
8934,-46.875000
8935,-52.734375
8936,-50.781250
8937,-48.828125
8938,-52.734375
8939,-48.828125
8940,-52.734375
8941,-48.828125
8942,-48.828125
8943,-50.781250
8944,-46.875000
8945,-48.828125
8946,-48.828125
8947,-48.828125
8948,-50.781250
8949,-48.828125
8950,-48.828125
8951,-50.781250
8952,-48.828125
8953,-50.781250
8954,-48.828125
8955,-54.687500
8956,-48.828125
8957,-52.734375
8958,-48.828125
8959,-60.546875
8960,-52.734375
8961,-48.828125
8962,-52.734375
8963,-48.828125
8964,-48.828125
8965,-50.781250
8966,-48.828125
8967,-52.734375
8968,-48.828125
8969,-52.734375
8970,-50.781250
8971,-44.921875
8972,-52.734375
8973,-46.875000
8974,-50.781250
8975,-48.828125
8976,-46.875000
8977,-50.781250
8978,-44.921875
8979,-48.828125
8980,-48.828125
8981,-48.828125
8982,-46.875000
8983,-48.828125
8984,-48.828125
8985,-48.828125
8986,-46.875000
8987,-48.828125
8988,-48.828125
8989,-41.015625
8990,-50.781250
8991,-48.828125
8992,-48.828125
8993,-50.781250
8994,-48.828125
8995,-48.828125
8996,-48.828125
8997,-52.734375
8998,-48.828125
8999,-48.828125
9000,-48.828125
9001,-48.828125
9002,-50.781250
9003,-48.828125
9004,-50.781250
9005,-52.734375
9006,-48.828125
9007,-56.640625
9008,-48.828125
9009,-52.734375
9010,-48.828125
9011,-56.640625
9012,-50.781250
9013,-48.828125
9014,-52.734375
9015,-54.687500
9016,-52.734375
9017,-50.781250
9018,-52.734375
9019,-56.640625
9020,-54.687500
9021,-48.828125
9022,-52.734375
9023,-48.828125
9024,-46.875000
9025,-52.734375
9026,-48.828125
9027,-52.734375
9028,-48.828125
9029,-48.828125
9030,-52.734375
9031,-48.828125
9032,-62.500000
9033,-48.828125
9034,-52.734375
9035,-52.734375
9036,-48.828125
9037,-52.734375
9038,-48.828125
9039,-48.828125
9040,-52.734375
9041,-50.781250
9042,-52.734375
9043,-50.781250
9044,-52.734375
9045,-48.828125
9046,-52.734375
9047,-54.687500
9048,-64.453125
9049,-60.546875
9050,-54.687500
9051,-54.687500
9052,-52.734375
9053,-54.687500
9054,-54.687500
9055,-50.781250
9056,-52.734375
9057,-56.640625
9058,-50.781250
9059,-54.687500
9060,-54.687500
9061,-54.687500
9062,-54.687500
9063,-52.734375
9064,-52.734375
9065,-50.781250
9066,-52.734375
9067,-52.734375
9068,-50.781250
9069,-54.687500
9070,-52.734375
9071,-54.687500
9072,-54.687500
9073,-52.734375
9074,-54.687500
9075,-50.781250
9076,-48.828125
9077,-52.734375
9078,-54.687500
9079,-52.734375
9080,-52.734375
9081,-54.687500
9082,-52.734375
9083,-52.734375
9084,-54.687500
9085,-48.828125
9086,-50.781250
9087,-54.687500
9088,-48.828125
9089,-52.734375
9090,-52.734375
9091,-56.640625
9092,-56.640625
9093,-52.734375
9094,-56.640625
9095,-50.781250
9096,-54.687500
9097,-48.828125
9098,-50.781250
9099,-54.687500
9100,-50.781250
9101,-52.734375
9102,-52.734375
9103,-52.734375
9104,-52.734375
9105,-54.687500
9106,-52.734375
9107,-54.687500
9108,-54.687500
9109,-46.875000
9110,-52.734375
9111,-52.734375
9112,-54.687500
9113,-50.781250
9114,-54.687500
9115,-52.734375
9116,-54.687500
9117,-56.640625
9118,-50.781250
9119,-56.640625
9120,-54.687500
9121,-52.734375
9122,-54.687500
9123,-52.734375
9124,-54.687500
9125,-50.781250
9126,-52.734375
9127,-54.687500
9128,-50.781250
9129,-54.687500
9130,-52.734375
9131,-54.687500
9132,-56.640625
9133,-52.734375
9134,-54.687500
9135,-48.828125
9136,-54.687500
9137,-50.781250
9138,-52.734375
9139,-54.687500
9140,-48.828125
9141,-54.687500
9142,-52.734375
9143,-52.734375
9144,-54.687500
9145,-50.781250
9146,-52.734375
9147,-54.687500
9148,-60.546875
9149,-56.640625
9150,-52.734375
9151,-56.640625
9152,-54.687500
9153,-56.640625
9154,-54.687500
9155,-56.640625
9156,-56.640625
9157,-54.687500
9158,-52.734375
9159,-52.734375
9160,-54.687500
9161,-56.640625
9162,-56.640625
9163,-52.734375
9164,-52.734375
9165,-50.781250
9166,-54.687500
9167,-54.687500
9168,-50.781250
9169,-46.875000
9170,-52.734375
9171,-54.687500
9172,-54.687500
9173,-54.687500
9174,-54.687500
9175,-48.828125
9176,-54.687500
9177,-54.687500
9178,-50.781250
9179,-50.781250
9180,-52.734375
9181,-52.734375
9182,-50.781250
9183,-52.734375
9184,-56.640625
9185,-54.687500
9186,-56.640625
9187,-54.687500
9188,-52.734375
9189,-52.734375
9190,-54.687500
9191,-50.781250
9192,-54.687500
9193,-54.687500
9194,-48.828125
9195,-54.687500
9196,-54.687500
9197,-54.687500
9198,-50.781250
9199,-56.640625
9200,-50.781250
9201,-56.640625
9202,-54.687500
9203,-54.687500
9204,-56.640625
9205,-52.734375
9206,-56.640625
9207,-54.687500
9208,-56.640625
9209,-52.734375
9210,-56.640625
9211,-56.640625
9212,-54.687500
9213,-56.640625
9214,-52.734375
9215,-60.546875
9216,-48.828125
9217,-56.640625
9218,-54.687500
9219,-50.781250
9220,-54.687500
9221,-54.687500
9222,-50.781250
9223,-54.687500
9224,-50.781250
9225,-56.640625
9226,-56.640625
9227,-54.687500
9228,-56.640625
9229,-54.687500
9230,-56.640625
9231,-56.640625
9232,-50.781250
9233,-54.687500
9234,-56.640625
9235,-54.687500
9236,-56.640625
9237,-54.687500
9238,-56.640625
9239,-56.640625
9240,-54.687500
9241,-56.640625
9242,-54.687500
9243,-54.687500
9244,-56.640625
9245,-52.734375
9246,-56.640625
9247,-54.687500
9248,-54.687500
9249,-56.640625
9250,-56.640625
9251,-52.734375
9252,-52.734375
9253,-56.640625
9254,-54.687500
9255,-54.687500
9256,-56.640625
9257,-56.640625
9258,-56.640625
9259,-56.640625
9260,-56.640625
9261,-56.640625
9262,-54.687500
9263,-56.640625
9264,-56.640625
9265,-56.640625
9266,-56.640625
9267,-56.640625
9268,-54.687500
9269,-56.640625
9270,-54.687500
9271,-56.640625
9272,-52.734375
9273,-56.640625
9274,-54.687500
9275,-54.687500
9276,-56.640625
9277,-54.687500
9278,-56.640625
9279,-56.640625
9280,-50.781250
9281,-54.687500
9282,-52.734375
9283,-54.687500
9284,-56.640625
9285,-56.640625
9286,-60.546875
9287,-52.734375
9288,-56.640625
9289,-56.640625
9290,-54.687500
9291,-52.734375
9292,-56.640625
9293,-54.687500
9294,-54.687500
9295,-56.640625
9296,-54.687500
9297,-56.640625
9298,-56.640625
9299,-56.640625
9300,-56.640625
9301,-56.640625
9302,-56.640625
9303,-56.640625
9304,-54.687500
9305,-54.687500
9306,-56.640625
9307,-54.687500
9308,-56.640625
9309,-54.687500
9310,-56.640625
9311,-56.640625
9312,-52.734375
9313,-52.734375
9314,-54.687500
9315,-54.687500
9316,-54.687500
9317,-52.734375
9318,-52.734375
9319,-54.687500
9320,-54.687500
9321,-54.687500
9322,-54.687500
9323,-56.640625
9324,-52.734375
9325,-54.687500
9326,-54.687500
9327,-52.734375
9328,-56.640625
9329,-54.687500
9330,-54.687500
9331,-54.687500
9332,-54.687500
9333,-54.687500
9334,-54.687500
9335,-56.640625
9336,-56.640625
9337,-50.781250
9338,-52.734375
9339,-54.687500
9340,-52.734375
9341,-56.640625
9342,-50.781250
9343,-54.687500
9344,-52.734375
9345,-52.734375
9346,-54.687500
9347,-50.781250
9348,-54.687500
9349,-54.687500
9350,-54.687500
9351,-50.781250
9352,-54.687500
9353,-56.640625
9354,-50.781250
9355,-56.640625
9356,-52.734375
9357,-54.687500
9358,-54.687500
9359,-50.781250
9360,-54.687500
9361,-54.687500
9362,-52.734375
9363,-52.734375
9364,-52.734375
9365,-54.687500
9366,-52.734375
9367,-54.687500
9368,-56.640625
9369,-54.687500
9370,-54.687500
9371,-54.687500
9372,-52.734375
9373,-54.687500
9374,-50.781250
9375,-52.734375
9376,-54.687500
9377,-54.687500
9378,-56.640625
9379,-41.015625
9380,-50.781250
9381,-48.828125
9382,-52.734375
9383,-54.687500
9384,-50.781250
9385,-52.734375
9386,-54.687500
9387,-54.687500
9388,-56.640625
9389,-50.781250
9390,-54.687500
9391,-52.734375
9392,-54.687500
9393,-54.687500
9394,-50.781250
9395,-54.687500
9396,-52.734375
9397,-48.828125
9398,-56.640625
9399,-50.781250
9400,-56.640625
9401,-54.687500
9402,-50.781250
9403,-56.640625
9404,-54.687500
9405,-56.640625
9406,-50.781250
9407,-50.781250
9408,-54.687500
9409,-50.781250
9410,-52.734375
9411,-54.687500
9412,-54.687500
9413,-54.687500
9414,-46.875000
9415,-50.781250
9416,-52.734375
9417,-54.687500
9418,-56.640625
9419,-48.828125
9420,-54.687500
9421,-52.734375
9422,-60.546875
9423,-52.734375
9424,-48.828125
9425,-50.781250
9426,-52.734375
9427,-48.828125
9428,-54.687500
9429,-50.781250
9430,-48.828125
9431,-48.828125
9432,-48.828125
9433,-48.828125
9434,-48.828125
9435,-48.828125
9436,-48.828125
9437,-48.828125
9438,-48.828125
9439,-44.921875
9440,-48.828125
9441,-50.781250
9442,-46.875000
9443,-48.828125
9444,-44.921875
9445,-48.828125
9446,-48.828125
9447,-48.828125
9448,-46.875000
9449,-44.921875
9450,-48.828125
9451,-46.875000
9452,-46.875000
9453,-46.875000
9454,-44.921875
9455,-48.828125
9456,-44.921875
9457,-50.781250
9458,-44.921875
9459,-44.921875
9460,-46.875000
9461,-44.921875
9462,-48.828125
9463,-44.921875
9464,-44.921875
9465,-44.921875
9466,-44.921875
9467,-44.921875
9468,-44.921875
9469,-41.015625
9470,-46.875000
9471,-41.015625
9472,-44.921875
9473,-48.828125
9474,-41.015625
9475,-44.921875
9476,-41.015625
9477,-44.921875
9478,-41.015625
9479,-41.015625
9480,-42.968750
9481,-41.015625
9482,-41.015625
9483,-42.968750
9484,-39.062500
9485,-41.015625
9486,-41.015625
9487,-41.015625
9488,-44.921875
9489,-41.015625
9490,-41.015625
9491,-39.062500
9492,-41.015625
9493,-41.015625
9494,-41.015625
9495,-42.968750
9496,-41.015625
9497,-41.015625
9498,-41.015625
9499,-29.296875
9500,-41.015625
9501,-41.015625
9502,-41.015625
9503,-41.015625
9504,-39.062500
9505,-42.968750
9506,-41.015625
9507,-41.015625
9508,-41.015625
9509,-44.921875
9510,-41.015625
9511,-41.015625
9512,-41.015625
9513,-41.015625
9514,-41.015625
9515,-41.015625
9516,-41.015625
9517,-41.015625
9518,-41.015625
9519,-39.062500
9520,-41.015625
9521,-39.062500
9522,-41.015625
9523,-42.968750
9524,-41.015625
9525,-41.015625
9526,-42.968750
9527,-39.062500
9528,-41.015625
9529,-39.062500
9530,-41.015625
9531,-41.015625
9532,-41.015625
9533,-41.015625
9534,-37.109375
9535,-41.015625
9536,-41.015625
9537,-41.015625
9538,-41.015625
9539,-39.062500
9540,-41.015625
9541,-41.015625
9542,-41.015625
9543,-41.015625
9544,-39.062500
9545,-41.015625
9546,-37.109375
9547,-44.921875
9548,-41.015625
9549,-41.015625
9550,-42.968750
9551,-39.062500
9552,-41.015625
9553,-44.921875
9554,-41.015625
9555,-44.921875
9556,-46.875000
9557,-41.015625
9558,-41.015625
9559,-41.015625
9560,-44.921875
9561,-41.015625
9562,-41.015625
9563,-41.015625
9564,-41.015625
9565,-42.968750
9566,-41.015625
9567,-41.015625
9568,-44.921875
9569,-41.015625
9570,-41.015625
9571,-41.015625
9572,-41.015625
9573,-41.015625
9574,-41.015625
9575,-41.015625
9576,-37.109375
9577,-41.015625
9578,-41.015625
9579,-41.015625
9580,-41.015625
9581,-39.062500
9582,-41.015625
9583,-41.015625
9584,-41.015625
9585,-41.015625
9586,-41.015625
9587,-41.015625
9588,-41.015625
9589,-41.015625
9590,-41.015625
9591,-41.015625
9592,-41.015625
9593,-41.015625
9594,-41.015625
9595,-41.015625
9596,-41.015625
9597,-41.015625
9598,-44.921875
9599,-41.015625
9600,-41.015625
9601,-41.015625
9602,-39.062500
9603,-41.015625
9604,-37.109375
9605,-41.015625
9606,-41.015625
9607,-39.062500
9608,-41.015625
9609,-39.062500
9610,-39.062500
9611,-39.062500
9612,-39.062500
9613,-41.015625
9614,-39.062500
9615,-41.015625
9616,-41.015625
9617,-39.062500
9618,-41.015625
9619,-37.109375
9620,-41.015625
9621,-41.015625
9622,-39.062500
9623,-41.015625
9624,-39.062500
9625,-41.015625
9626,-41.015625
9627,-39.062500
9628,-39.062500
9629,-37.109375
9630,-41.015625
9631,-39.062500
9632,-41.015625
9633,-41.015625
9634,-41.015625
9635,-41.015625
9636,-41.015625
9637,-41.015625
9638,-41.015625
9639,-41.015625
9640,-41.015625
9641,-41.015625
9642,-41.015625
9643,-41.015625
9644,-39.062500
9645,-41.015625
9646,-39.062500
9647,-37.109375
9648,-41.015625
9649,-37.109375
9650,-41.015625
9651,-41.015625
9652,-41.015625
9653,-44.921875
9654,-41.015625
9655,-41.015625
9656,-41.015625
9657,-42.968750
9658,-37.109375
9659,-50.781250
9660,-41.015625
9661,-41.015625
9662,-41.015625
9663,-41.015625
9664,-41.015625
9665,-41.015625
9666,-41.015625
9667,-39.062500
9668,-41.015625
9669,-41.015625
9670,-41.015625
9671,-41.015625
9672,-39.062500
9673,-41.015625
9674,-39.062500
9675,-39.062500
9676,-42.968750
9677,-39.062500
9678,-39.062500
9679,-41.015625
9680,-39.062500
9681,-37.109375
9682,-41.015625
9683,-41.015625
9684,-41.015625
9685,-41.015625
9686,-39.062500
9687,-39.062500
9688,-41.015625
9689,-39.062500
9690,-39.062500
9691,-41.015625
9692,-41.015625
9693,-41.015625
9694,-37.109375
9695,-39.062500
9696,-39.062500
9697,-37.109375
9698,-41.015625
9699,-39.062500
9700,-41.015625
9701,-37.109375
9702,-37.109375
9703,-41.015625
9704,-41.015625
9705,-44.921875
9706,-39.062500
9707,-41.015625
9708,-37.109375
9709,-44.921875
9710,-41.015625
9711,-37.109375
9712,-41.015625
9713,-37.109375
9714,-42.968750
9715,-41.015625
9716,-39.062500
9717,-41.015625
9718,-41.015625
9719,-41.015625
9720,-41.015625
9721,-39.062500
9722,-44.921875
9723,-41.015625
9724,-39.062500
9725,-41.015625
9726,-33.203125
9727,-41.015625
9728,-41.015625
9729,-39.062500
9730,-41.015625
9731,-35.156250
9732,-39.062500
9733,-41.015625
9734,-39.062500
9735,-41.015625
9736,-39.062500
9737,-41.015625
9738,-39.062500
9739,-41.015625
9740,-41.015625
9741,-41.015625
9742,-44.921875
9743,-41.015625
9744,-41.015625
9745,-41.015625
9746,-41.015625
9747,-39.062500
9748,-41.015625
9749,-39.062500
9750,-41.015625
9751,-41.015625
9752,-41.015625
9753,-41.015625
9754,-41.015625
9755,-41.015625
9756,-41.015625
9757,-41.015625
9758,-41.015625
9759,-41.015625
9760,-41.015625
9761,-41.015625
9762,-41.015625
9763,-44.921875
9764,-41.015625
9765,-41.015625
9766,-39.062500
9767,-41.015625
9768,-41.015625
9769,-41.015625
9770,-41.015625
9771,-41.015625
9772,-39.062500
9773,-41.015625
9774,-37.109375
9775,-41.015625
9776,-41.015625
9777,-41.015625
9778,-41.015625
9779,-41.015625
9780,-41.015625
9781,-41.015625
9782,-37.109375
9783,-41.015625
9784,-41.015625
9785,-41.015625
9786,-33.203125
9787,-37.109375
9788,-41.015625
9789,-41.015625
9790,-41.015625
9791,-41.015625
9792,-41.015625
9793,-41.015625
9794,-41.015625
9795,-41.015625
9796,-41.015625
9797,-39.062500
9798,-41.015625
9799,-41.015625
9800,-41.015625
9801,-41.015625
9802,-41.015625
9803,-41.015625
9804,-41.015625
9805,-39.062500
9806,-41.015625
9807,-41.015625
9808,-41.015625
9809,-41.015625
9810,-41.015625
9811,-41.015625
9812,-41.015625
9813,-41.015625
9814,-41.015625
9815,-41.015625
9816,-41.015625
9817,-44.921875
9818,-41.015625
9819,-41.015625
9820,-41.015625
9821,-41.015625
9822,-41.015625
9823,-41.015625
9824,-41.015625
9825,-41.015625
9826,-41.015625
9827,-41.015625
9828,-41.015625
9829,-39.062500
9830,-41.015625
9831,-41.015625
9832,-41.015625
9833,-56.640625
9834,-39.062500
9835,-41.015625
9836,-41.015625
9837,-39.062500
9838,-41.015625
9839,-39.062500
9840,-41.015625
9841,-41.015625
9842,-39.062500
9843,-41.015625
9844,-39.062500
9845,-39.062500
9846,-41.015625
9847,-41.015625
9848,-41.015625
9849,-39.062500
9850,-41.015625
9851,-41.015625
9852,-41.015625
9853,-41.015625
9854,-41.015625
9855,-41.015625
9856,-41.015625
9857,-41.015625
9858,-41.015625
9859,-42.968750
9860,-46.875000
9861,-41.015625
9862,-41.015625
9863,-44.921875
9864,-44.921875
9865,-42.968750
9866,-42.968750
9867,-41.015625
9868,-44.921875
9869,-42.968750
9870,-44.921875
9871,-44.921875
9872,-41.015625
9873,-44.921875
9874,-44.921875
9875,-44.921875
9876,-44.921875
9877,-44.921875
9878,-46.875000
9879,-46.875000
9880,-60.546875
9881,-44.921875
9882,-44.921875
9883,-46.875000
9884,-46.875000
9885,-44.921875
9886,-46.875000
9887,-46.875000
9888,-46.875000
9889,-48.828125
9890,-48.828125
9891,-46.875000
9892,-48.828125
9893,-48.828125
9894,-46.875000
9895,-48.828125
9896,-46.875000
9897,-48.828125
9898,-52.734375
9899,-44.921875
9900,-48.828125
9901,-48.828125
9902,-46.875000
9903,-50.781250
9904,-44.921875
9905,-50.781250
9906,-44.921875
9907,-48.828125
9908,-48.828125
9909,-48.828125
9910,-44.921875
9911,-48.828125
9912,-48.828125
9913,-50.781250
9914,-50.781250
9915,-52.734375
9916,-48.828125
9917,-48.828125
9918,-50.781250
9919,-48.828125
9920,-48.828125
9921,-50.781250
9922,-62.500000
9923,-52.734375
9924,-46.875000
9925,-48.828125
9926,-48.828125
9927,-48.828125
9928,-50.781250
9929,-44.921875
9930,-33.203125
9931,-44.921875
9932,-48.828125
9933,-50.781250
9934,-48.828125
9935,-50.781250
9936,-50.781250
9937,-50.781250
9938,-48.828125
9939,-48.828125
9940,-44.921875
9941,-48.828125
9942,-48.828125
9943,-48.828125
9944,-48.828125
9945,-50.781250
9946,-48.828125
9947,-52.734375
9948,-48.828125
9949,-48.828125
9950,-52.734375
9951,-50.781250
9952,-48.828125
9953,-48.828125
9954,-48.828125
9955,-52.734375
9956,-48.828125
9957,-50.781250
9958,-48.828125
9959,-52.734375
9960,-52.734375
9961,-48.828125
9962,-50.781250
9963,-46.875000
9964,-46.875000
9965,-46.875000
9966,-44.921875
9967,-54.687500
9968,-48.828125
9969,-52.734375
9970,-48.828125
9971,-48.828125
9972,-52.734375
9973,-48.828125
9974,-48.828125
9975,-50.781250
9976,-46.875000
9977,-50.781250
9978,-46.875000
9979,-50.781250
9980,-52.734375
9981,-48.828125
9982,-50.781250
9983,-50.781250
9984,-48.828125
9985,-50.781250
9986,-48.828125
9987,-48.828125
9988,-52.734375
9989,-50.781250
9990,-52.734375
9991,-48.828125
9992,-54.687500
9993,-50.781250
9994,-48.828125
9995,-48.828125
9996,-48.828125
9997,-52.734375
9998,-52.734375
9999,-50.781250
10000,-46.875000
