Channel              :,CH1
Frequency            :,  ?
Period               :,  ?
PK-PK                :,103.5mV
Probe attenuation    :,10X
Voltage per ADC value:,0.122070mV
Time interval        :,400.00000us

index,CH1_Voltage(mV)
1,0.000000
2,0.000000
3,1.953125
4,1.953125
5,1.953125
6,1.953125
7,1.953125
8,5.859375
9,0.000000
10,5.859375
11,1.953125
12,1.953125
13,5.859375
14,0.000000
15,1.953125
16,1.953125
17,3.906250
18,3.906250
19,1.953125
20,1.953125
21,0.000000
22,0.000000
23,0.000000
24,3.906250
25,1.953125
26,5.859375
27,5.859375
28,1.953125
29,5.859375
30,1.953125
31,1.953125
32,1.953125
33,1.953125
34,1.953125
35,1.953125
36,5.859375
37,5.859375
38,5.859375
39,1.953125
40,1.953125
41,3.906250
42,-1.953125
43,5.859375
44,3.906250
45,7.812500
46,5.859375
47,5.859375
48,5.859375
49,3.906250
50,7.812500
51,5.859375
52,9.765625
53,9.765625
54,7.812500
55,7.812500
56,7.812500
57,7.812500
58,7.812500
59,11.718750
60,7.812500
61,11.718750
62,9.765625
63,5.859375
64,15.625000
65,9.765625
66,13.671875
67,9.765625
68,15.625000
69,5.859375
70,15.625000
71,7.812500
72,15.625000
73,13.671875
74,11.718750
75,17.578125
76,17.578125
77,17.578125
78,17.578125
79,17.578125
80,17.578125
81,21.484375
82,21.484375
83,21.484375
84,21.484375
85,21.484375
86,23.437500
87,27.343750
88,21.484375
89,27.343750
90,25.390625
91,27.343750
92,29.296875
93,29.296875
94,33.203125
95,29.296875
96,33.203125
97,33.203125
98,33.203125
99,37.109375
100,35.156250
101,37.109375
102,37.109375
103,39.062500
104,37.109375
105,39.062500
106,42.968750
107,41.015625
108,44.921875
109,41.015625
110,46.875000
111,44.921875
112,46.875000
113,46.875000
114,44.921875
115,48.828125
116,46.875000
117,46.875000
118,48.828125
119,48.828125
120,50.781250
121,46.875000
122,52.734375
123,50.781250
124,48.828125
125,48.828125
126,48.828125
127,50.781250
128,48.828125
129,48.828125
130,48.828125
131,48.828125
132,48.828125
133,41.015625
134,48.828125
135,44.921875
136,48.828125
137,46.875000
138,46.875000
139,46.875000
140,44.921875
141,44.921875
142,44.921875
143,46.875000
144,42.968750
145,44.921875
146,46.875000
147,42.968750
148,46.875000
149,44.921875
150,48.828125
151,42.968750
152,46.875000
153,44.921875
154,42.968750
155,44.921875
156,44.921875
157,48.828125
158,44.921875
159,46.875000
160,44.921875
161,44.921875
162,46.875000
163,44.921875
164,48.828125
165,44.921875
166,52.734375
167,46.875000
168,48.828125
169,46.875000
170,48.828125
171,46.875000
172,48.828125
173,52.734375
174,46.875000
175,52.734375
176,48.828125
177,52.734375
178,52.734375
179,52.734375
180,52.734375
181,52.734375
182,54.687500
183,52.734375
184,52.734375
185,54.687500
186,52.734375
187,52.734375
188,54.687500
189,58.593750
190,58.593750
191,60.546875
192,54.687500
193,56.640625
194,56.640625
195,48.828125
196,58.593750
197,52.734375
198,54.687500
199,44.921875
200,54.687500
201,52.734375
202,52.734375
203,54.687500
204,52.734375
205,52.734375
206,48.828125
207,52.734375
208,46.875000
209,48.828125
210,52.734375
211,44.921875
212,48.828125
213,44.921875
214,44.921875
215,48.828125
216,42.968750
217,42.968750
218,42.968750
219,39.062500
220,44.921875
221,37.109375
222,39.062500
223,37.109375
224,39.062500
225,37.109375
226,37.109375
227,37.109375
228,33.203125
229,37.109375
230,33.203125
231,33.203125
232,37.109375
233,33.203125
234,37.109375
235,33.203125
236,33.203125
237,33.203125
238,33.203125
239,33.203125
240,33.203125
241,37.109375
242,33.203125
243,33.203125
244,37.109375
245,37.109375
246,37.109375
247,33.203125
248,37.109375
249,29.296875
250,33.203125
251,33.203125
252,33.203125
253,33.203125
254,33.203125
255,37.109375
256,31.250000
257,27.343750
258,33.203125
259,29.296875
260,33.203125
261,31.250000
262,33.203125
263,29.296875
264,33.203125
265,33.203125
266,33.203125
267,33.203125
268,29.296875
269,33.203125
270,31.250000
271,29.296875
272,31.250000
273,31.250000
274,31.250000
275,29.296875
276,33.203125
277,29.296875
278,29.296875
279,27.343750
280,27.343750
281,27.343750
282,27.343750
283,27.343750
284,27.343750
285,25.390625
286,29.296875
287,21.484375
288,25.390625
289,23.437500
290,25.390625
291,23.437500
292,25.390625
293,23.437500
294,21.484375
295,25.390625
296,23.437500
297,25.390625
298,23.437500
299,23.437500
300,23.437500
301,25.390625
302,27.343750
303,23.437500
304,23.437500
305,21.484375
306,23.437500
307,23.437500
308,23.437500
309,25.390625
310,23.437500
311,23.437500
312,23.437500
313,23.437500
314,23.437500
315,23.437500
316,21.484375
317,23.437500
318,17.578125
319,27.343750
320,23.437500
321,21.484375
322,23.437500
323,23.437500
324,23.437500
325,23.437500
326,21.484375
327,25.390625
328,21.484375
329,23.437500
330,23.437500
331,21.484375
332,25.390625
333,23.437500
334,25.390625
335,23.437500
336,23.437500
337,25.390625
338,25.390625
339,23.437500
340,21.484375
341,23.437500
342,23.437500
343,21.484375
344,23.437500
345,21.484375
346,23.437500
347,21.484375
348,21.484375
349,21.484375
350,23.437500
351,21.484375
352,21.484375
353,21.484375
354,17.578125
355,23.437500
356,19.531250
357,21.484375
358,17.578125
359,17.578125
360,21.484375
361,17.578125
362,17.578125
363,17.578125
364,19.531250
365,17.578125
366,15.625000
367,21.484375
368,21.484375
369,21.484375
370,17.578125
371,13.671875
372,17.578125
373,13.671875
374,17.578125
375,13.671875
376,17.578125
377,13.671875
378,13.671875
379,13.671875
380,11.718750
381,13.671875
382,13.671875
383,13.671875
384,13.671875
385,9.765625
386,9.765625
387,7.812500
388,13.671875
389,9.765625
390,7.812500
391,9.765625
392,9.765625
393,11.718750
394,11.718750
395,15.625000
396,13.671875
397,-1.953125
398,17.578125
399,17.578125
400,17.578125
401,13.671875
402,19.531250
403,21.484375
404,23.437500
405,19.531250
406,25.390625
407,27.343750
408,27.343750
409,27.343750
410,15.625000
411,29.296875
412,29.296875
413,31.250000
414,31.250000
415,31.250000
416,33.203125
417,33.203125
418,33.203125
419,33.203125
420,37.109375
421,35.156250
422,33.203125
423,33.203125
424,37.109375
425,41.015625
426,39.062500
427,42.968750
428,42.968750
429,42.968750
430,42.968750
431,42.968750
432,42.968750
433,44.921875
434,48.828125
435,52.734375
436,52.734375
437,54.687500
438,54.687500
439,54.687500
440,52.734375
441,56.640625
442,52.734375
443,46.875000
444,50.781250
445,52.734375
446,52.734375
447,48.828125
448,52.734375
449,46.875000
450,48.828125
451,44.921875
452,42.968750
453,42.968750
454,41.015625
455,41.015625
456,33.203125
457,37.109375
458,31.250000
459,37.109375
460,33.203125
461,33.203125
462,33.203125
463,33.203125
464,29.296875
465,37.109375
466,33.203125
467,35.156250
468,31.250000
469,35.156250
470,31.250000
471,31.250000
472,48.828125
473,29.296875
474,31.250000
475,27.343750
476,27.343750
477,23.437500
478,23.437500
479,21.484375
480,21.484375
481,21.484375
482,19.531250
483,21.484375
484,17.578125
485,15.625000
486,17.578125
487,13.671875
488,17.578125
489,13.671875
490,17.578125
491,13.671875
492,13.671875
493,13.671875
494,11.718750
495,17.578125
496,13.671875
497,21.484375
498,17.578125
499,17.578125
500,15.625000
501,17.578125
502,17.578125
503,17.578125
504,21.484375
505,33.203125
506,25.390625
507,27.343750
508,29.296875
509,31.250000
510,29.296875
511,33.203125
512,29.296875
513,33.203125
514,33.203125
515,33.203125
516,31.250000
517,33.203125
518,27.343750
519,27.343750
520,27.343750
521,25.390625
522,27.343750
523,23.437500
524,23.437500
525,21.484375
526,13.671875
527,17.578125
528,11.718750
529,13.671875
530,9.765625
531,7.812500
532,5.859375
533,1.953125
534,3.906250
535,-1.953125
536,-1.953125
537,-1.953125
538,-1.953125
539,-3.906250
540,-9.765625
541,-5.859375
542,-9.765625
543,-15.625000
544,-9.765625
545,-9.765625
546,-9.765625
547,-9.765625
548,-9.765625
549,-11.718750
550,-9.765625
551,-9.765625
552,-9.765625
553,-9.765625
554,-9.765625
555,-9.765625
556,-13.671875
557,-7.812500
558,-9.765625
559,-9.765625
560,-7.812500
561,-9.765625
562,-7.812500
563,-7.812500
564,-7.812500
565,-7.812500
566,-3.906250
567,-7.812500
568,-3.906250
569,-7.812500
570,-7.812500
571,-3.906250
572,-7.812500
573,-7.812500
574,-7.812500
575,-7.812500
576,-7.812500
577,-7.812500
578,-5.859375
579,-9.765625
580,-9.765625
581,-9.765625
582,-9.765625
583,-5.859375
584,-9.765625
585,-9.765625
586,-9.765625
587,-9.765625
588,-9.765625
589,-13.671875
590,-13.671875
591,-13.671875
592,-5.859375
593,-13.671875
594,-9.765625
595,-13.671875
596,-11.718750
597,-13.671875
598,-15.625000
599,-9.765625
600,-17.578125
601,-9.765625
602,-13.671875
603,-9.765625
604,-15.625000
605,-17.578125
606,-13.671875
607,-13.671875
608,-11.718750
609,-15.625000
610,-13.671875
611,-15.625000
612,-15.625000
613,-13.671875
614,-17.578125
615,-15.625000
616,-17.578125
617,-13.671875
618,-15.625000
619,-17.578125
620,-17.578125
621,-25.390625
622,-15.625000
623,-17.578125
624,-21.484375
625,-17.578125
626,-17.578125
627,-21.484375
628,-23.437500
629,-23.437500
630,-25.390625
631,-23.437500
632,-25.390625
633,-23.437500
634,-25.390625
635,-25.390625
636,-25.390625
637,-29.296875
638,-25.390625
639,-29.296875
640,-29.296875
641,-29.296875
642,-29.296875
643,-29.296875
644,-31.250000
645,-29.296875
646,-33.203125
647,-29.296875
648,-31.250000
649,-29.296875
650,-13.671875
651,-33.203125
652,-31.250000
653,-33.203125
654,-33.203125
655,-33.203125
656,-31.250000
657,-33.203125
658,-33.203125
659,-33.203125
660,-33.203125
661,-33.203125
662,-35.156250
663,-33.203125
664,-33.203125
665,-33.203125
666,-33.203125
667,-33.203125
668,-33.203125
669,-33.203125
670,-33.203125
671,-33.203125
672,-35.156250
673,-33.203125
674,-33.203125
675,-35.156250
676,-35.156250
677,-33.203125
678,-35.156250
679,-29.296875
680,-33.203125
681,-35.156250
682,-33.203125
683,-33.203125
684,-35.156250
685,-33.203125
686,-37.109375
687,-33.203125
688,-37.109375
689,-35.156250
690,-35.156250
691,-35.156250
692,-33.203125
693,-37.109375
694,-37.109375
695,-37.109375
696,-35.156250
697,-41.015625
698,-33.203125
699,-37.109375
700,-35.156250
701,-39.062500
702,-35.156250
703,-37.109375
704,-37.109375
705,-39.062500
706,-41.015625
707,-39.062500
708,-37.109375
709,-37.109375
710,-37.109375
711,-39.062500
712,-23.437500
713,-39.062500
714,-37.109375
715,-35.156250
716,-39.062500
717,-37.109375
718,-39.062500
719,-37.109375
720,-39.062500
721,-39.062500
722,-37.109375
723,-41.015625
724,-37.109375
725,-39.062500
726,-39.062500
727,-37.109375
728,-39.062500
729,-37.109375
730,-39.062500
731,-39.062500
732,-35.156250
733,-41.015625
734,-37.109375
735,-41.015625
736,-39.062500
737,-37.109375
738,-39.062500
739,-39.062500
740,-39.062500
741,-37.109375
742,-41.015625
743,-37.109375
744,-39.062500
745,-41.015625
746,-35.156250
747,-41.015625
748,-39.062500
749,-39.062500
750,-39.062500
751,-39.062500
752,-39.062500
753,-35.156250
754,-37.109375
755,-35.156250
756,-41.015625
757,-39.062500
758,-39.062500
759,-41.015625
760,-37.109375
761,-39.062500
762,-37.109375
763,-37.109375
764,-41.015625
765,-39.062500
766,-41.015625
767,-37.109375
768,-39.062500
769,-41.015625
770,-41.015625
771,-39.062500
772,-39.062500
773,-39.062500
774,-39.062500
775,-41.015625
776,-39.062500
777,-39.062500
778,-37.109375
779,-37.109375
780,-39.062500
781,-35.156250
782,-37.109375
783,-37.109375
784,-37.109375
785,-35.156250
786,-33.203125
787,-33.203125
788,-33.203125
789,-33.203125
790,-33.203125
791,-33.203125
792,-35.156250
793,-31.250000
794,-35.156250
795,-33.203125
796,-33.203125
797,-33.203125
798,-33.203125
799,-41.015625
800,-33.203125
801,-33.203125
802,-31.250000
803,-33.203125
804,-31.250000
805,-33.203125
806,-35.156250
807,-33.203125
808,-35.156250
809,-33.203125
810,-35.156250
811,-35.156250
812,-35.156250
813,-35.156250
814,-35.156250
815,-37.109375
816,-35.156250
817,-39.062500
818,-37.109375
819,-37.109375
820,-33.203125
821,-37.109375
822,-37.109375
823,-37.109375
824,-37.109375
825,-35.156250
826,-37.109375
827,-37.109375
828,-33.203125
829,-37.109375
830,-35.156250
831,-35.156250
832,-35.156250
833,-35.156250
834,-35.156250
835,-33.203125
836,-33.203125
837,-33.203125
838,-33.203125
839,-35.156250
840,-33.203125
841,-31.250000
842,-29.296875
843,-33.203125
844,-33.203125
845,-33.203125
846,-33.203125
847,-31.250000
848,-33.203125
849,-31.250000
850,-31.250000
851,-33.203125
852,-33.203125
853,-35.156250
854,-33.203125
855,-31.250000
856,-35.156250
857,-35.156250
858,-33.203125
859,-35.156250
860,-33.203125
861,-35.156250
862,-33.203125
863,-33.203125
864,-37.109375
865,-33.203125
866,-37.109375
867,-35.156250
868,-37.109375
869,-37.109375
870,-35.156250
871,-41.015625
872,-39.062500
873,-39.062500
874,-39.062500
875,-39.062500
876,-41.015625
877,-37.109375
878,-39.062500
879,-41.015625
880,-42.968750
881,-41.015625
882,-39.062500
883,-41.015625
884,-41.015625
885,-41.015625
886,-41.015625
887,-41.015625
888,-41.015625
889,-41.015625
890,-44.921875
891,-42.968750
892,-42.968750
893,-42.968750
894,-41.015625
895,-41.015625
896,-41.015625
897,-41.015625
898,-41.015625
899,-42.968750
900,-44.921875
901,-41.015625
902,-41.015625
903,-41.015625
904,-44.921875
905,-41.015625
906,-41.015625
907,-39.062500
908,-41.015625
909,-41.015625
910,-41.015625
911,-37.109375
912,-37.109375
913,-41.015625
914,-39.062500
915,-41.015625
916,-41.015625
917,-41.015625
918,-39.062500
919,-37.109375
920,-41.015625
921,-37.109375
922,-39.062500
923,-41.015625
924,-39.062500
925,-39.062500
926,-35.156250
927,-39.062500
928,-39.062500
929,-37.109375
930,-39.062500
931,-37.109375
932,-39.062500
933,-35.156250
934,-39.062500
935,-35.156250
936,-35.156250
937,-37.109375
938,-35.156250
939,-39.062500
940,-33.203125
941,-41.015625
942,-39.062500
943,-41.015625
944,-39.062500
945,-41.015625
946,-41.015625
947,-37.109375
948,-41.015625
949,-37.109375
950,-41.015625
951,-39.062500
952,-41.015625
953,-41.015625
954,-39.062500
955,-41.015625
956,-37.109375
957,-44.921875
958,-41.015625
959,-41.015625
960,-41.015625
961,-41.015625
962,-41.015625
963,-39.062500
964,-41.015625
965,-46.875000
966,-39.062500
967,-41.015625
968,-39.062500
969,-41.015625
970,-41.015625
971,-39.062500
972,-44.921875
973,-25.390625
974,-41.015625
975,-41.015625
976,-41.015625
977,-42.968750
978,-37.109375
979,-42.968750
980,-39.062500
981,-41.015625
982,-41.015625
983,-39.062500
984,-44.921875
985,-41.015625
986,-41.015625
987,-41.015625
988,-41.015625
989,-41.015625
990,-39.062500
991,-44.921875
992,-41.015625
993,-44.921875
994,-41.015625
995,-41.015625
996,-44.921875
997,-41.015625
998,-44.921875
999,-42.968750
1000,-44.921875
1001,-41.015625
1002,-44.921875
1003,-41.015625
1004,-41.015625
1005,-44.921875
1006,-41.015625
1007,-46.875000
1008,-41.015625
1009,-44.921875
1010,-41.015625
1011,-41.015625
1012,-44.921875
1013,-41.015625
1014,-41.015625
1015,-41.015625
1016,-44.921875
1017,-41.015625
1018,-41.015625
1019,-42.968750
1020,-41.015625
1021,-41.015625
1022,-41.015625
1023,-41.015625
1024,-41.015625
1025,-41.015625
1026,-41.015625
1027,-37.109375
1028,-41.015625
1029,-39.062500
1030,-37.109375
1031,-35.156250
1032,-33.203125
1033,-37.109375
1034,-33.203125
1035,-35.156250
1036,-33.203125
1037,-31.250000
1038,-33.203125
1039,-29.296875
1040,-31.250000
1041,-29.296875
1042,-31.250000
1043,-29.296875
1044,-25.390625
1045,-25.390625
1046,-23.437500
1047,-25.390625
1048,-23.437500
1049,-23.437500
1050,-21.484375
1051,-21.484375
1052,-19.531250
1053,-19.531250
1054,-19.531250
1055,-19.531250
1056,-21.484375
1057,-17.578125
1058,-19.531250
1059,-17.578125
1060,-19.531250
1061,-17.578125
1062,-19.531250
1063,-17.578125
1064,-5.859375
1065,-17.578125
1066,-17.578125
1067,-15.625000
1068,-13.671875
1069,-15.625000
1070,-15.625000
1071,-13.671875
1072,-15.625000
1073,-13.671875
1074,-13.671875
1075,-15.625000
1076,-13.671875
1077,-9.765625
1078,-11.718750
1079,-13.671875
1080,-13.671875
1081,-11.718750
1082,-13.671875
1083,-9.765625
1084,-13.671875
1085,-9.765625
1086,-13.671875
1087,-9.765625
1088,-9.765625
1089,-13.671875
1090,-9.765625
1091,-9.765625
1092,-9.765625
1093,-5.859375
1094,-9.765625
1095,-7.812500
1096,-9.765625
1097,-5.859375
1098,-5.859375
1099,-7.812500
1100,-7.812500
1101,-5.859375
1102,-3.906250
1103,-5.859375
1104,-3.906250
1105,-7.812500
1106,-1.953125
1107,-7.812500
1108,-3.906250
1109,-1.953125
1110,-3.906250
1111,-1.953125
1112,-3.906250
1113,0.000000
1114,-7.812500
1115,1.953125
1116,0.000000
1117,0.000000
1118,1.953125
1119,0.000000
1120,3.906250
1121,1.953125
1122,-5.859375
1123,3.906250
1124,1.953125
1125,5.859375
1126,-7.812500
1127,5.859375
1128,1.953125
1129,5.859375
1130,5.859375
1131,7.812500
1132,9.765625
1133,5.859375
1134,9.765625
1135,9.765625
1136,9.765625
1137,13.671875
1138,7.812500
1139,15.625000
1140,11.718750
1141,13.671875
1142,5.859375
1143,13.671875
1144,17.578125
1145,7.812500
1146,7.812500
1147,3.906250
1148,9.765625
1149,7.812500
1150,7.812500
1151,9.765625
1152,5.859375
1153,7.812500
1154,5.859375
1155,7.812500
1156,5.859375
1157,5.859375
1158,1.953125
1159,1.953125
1160,5.859375
1161,1.953125
1162,5.859375
1163,1.953125
1164,5.859375
1165,1.953125
1166,1.953125
1167,1.953125
1168,1.953125
1169,1.953125
1170,1.953125
1171,1.953125
1172,1.953125
1173,0.000000
1174,5.859375
1175,0.000000
1176,1.953125
1177,0.000000
1178,1.953125
1179,1.953125
1180,1.953125
1181,1.953125
1182,-1.953125
1183,1.953125
1184,0.000000
1185,1.953125
1186,1.953125
1187,0.000000
1188,1.953125
1189,-1.953125
1190,0.000000
1191,-1.953125
1192,-1.953125
1193,-1.953125
1194,-3.906250
1195,-1.953125
1196,-7.812500
1197,-3.906250
1198,-7.812500
1199,-3.906250
1200,-7.812500
1201,-7.812500
1202,-5.859375
1203,-9.765625
1204,-7.812500
1205,-9.765625
1206,-7.812500
1207,-3.906250
1208,-9.765625
1209,-9.765625
1210,-11.718750
1211,-9.765625
1212,-13.671875
1213,-9.765625
1214,-9.765625
1215,-13.671875
1216,-13.671875
1217,-9.765625
1218,-15.625000
1219,-13.671875
1220,-13.671875
1221,-13.671875
1222,-15.625000
1223,-13.671875
1224,-13.671875
1225,-15.625000
1226,-9.765625
1227,-15.625000
1228,-9.765625
1229,-13.671875
1230,-13.671875
1231,-13.671875
1232,-15.625000
1233,-13.671875
1234,-15.625000
1235,-11.718750
1236,-13.671875
1237,-15.625000
1238,-15.625000
1239,-13.671875
1240,-13.671875
1241,-15.625000
1242,-13.671875
1243,-15.625000
1244,-17.578125
1245,-13.671875
1246,-19.531250
1247,-13.671875
1248,-15.625000
1249,-15.625000
1250,-13.671875
1251,-15.625000
1252,-13.671875
1253,-17.578125
1254,-13.671875
1255,-15.625000
1256,-13.671875
1257,-13.671875
1258,-15.625000
1259,-13.671875
1260,-17.578125
1261,-13.671875
1262,-13.671875
1263,-9.765625
1264,-13.671875
1265,-13.671875
1266,-13.671875
1267,-15.625000
1268,-13.671875
1269,-15.625000
1270,-15.625000
1271,-15.625000
1272,-15.625000
1273,-13.671875
1274,-17.578125
1275,-13.671875
1276,-15.625000
1277,-17.578125
1278,-17.578125
1279,-17.578125
1280,-17.578125
1281,-17.578125
1282,-17.578125
1283,-15.625000
1284,-19.531250
1285,-17.578125
1286,-19.531250
1287,-17.578125
1288,-19.531250
1289,-17.578125
1290,-19.531250
1291,-17.578125
1292,-17.578125
1293,-19.531250
1294,-17.578125
1295,-21.484375
1296,-15.625000
1297,-21.484375
1298,-19.531250
1299,-17.578125
1300,-19.531250
1301,-17.578125
1302,-21.484375
1303,-19.531250
1304,-15.625000
1305,-19.531250
1306,-21.484375
1307,-21.484375
1308,-17.578125
1309,-21.484375
1310,-19.531250
1311,-19.531250
1312,-21.484375
1313,-17.578125
1314,-19.531250
1315,-19.531250
1316,-17.578125
1317,-19.531250
1318,-19.531250
1319,-17.578125
1320,-19.531250
1321,-17.578125
1322,-17.578125
1323,-17.578125
1324,-17.578125
1325,-21.484375
1326,-17.578125
1327,-15.625000
1328,-17.578125
1329,-13.671875
1330,-13.671875
1331,-17.578125
1332,-19.531250
1333,-9.765625
1334,-17.578125
1335,-19.531250
1336,-17.578125
1337,-17.578125
1338,-17.578125
1339,-17.578125
1340,-17.578125
1341,-17.578125
1342,-19.531250
1343,-19.531250
1344,-21.484375
1345,-21.484375
1346,-19.531250
1347,-21.484375
1348,-21.484375
1349,-23.437500
1350,-25.390625
1351,-23.437500
1352,-25.390625
1353,-23.437500
1354,-27.343750
1355,-25.390625
1356,-29.296875
1357,-25.390625
1358,-33.203125
1359,-27.343750
1360,-29.296875
1361,-27.343750
1362,-29.296875
1363,-31.250000
1364,-29.296875
1365,-33.203125
1366,-35.156250
1367,-31.250000
1368,-31.250000
1369,-31.250000
1370,-33.203125
1371,-31.250000
1372,-35.156250
1373,-33.203125
1374,-35.156250
1375,-33.203125
1376,-35.156250
1377,-35.156250
1378,-33.203125
1379,-33.203125
1380,-33.203125
1381,-33.203125
1382,-33.203125
1383,-33.203125
1384,-35.156250
1385,-33.203125
1386,-35.156250
1387,-33.203125
1388,-33.203125
1389,-35.156250
1390,-33.203125
1391,-33.203125
1392,-33.203125
1393,-33.203125
1394,-31.250000
1395,-31.250000
1396,-33.203125
1397,-31.250000
1398,-31.250000
1399,-29.296875
1400,-33.203125
1401,-31.250000
1402,-29.296875
1403,-29.296875
1404,-29.296875
1405,-29.296875
1406,-25.390625
1407,-27.343750
1408,-25.390625
1409,-25.390625
1410,-27.343750
1411,-23.437500
1412,-25.390625
1413,-23.437500
1414,-25.390625
1415,-23.437500
1416,-23.437500
1417,-25.390625
1418,-23.437500
1419,-23.437500
1420,-19.531250
1421,-25.390625
1422,-25.390625
1423,-17.578125
1424,-23.437500
1425,-21.484375
1426,-25.390625
1427,-23.437500
1428,-29.296875
1429,-25.390625
1430,-25.390625
1431,-29.296875
1432,-25.390625
1433,-25.390625
1434,-25.390625
1435,-25.390625
1436,-29.296875
1437,-23.437500
1438,-29.296875
1439,-27.343750
1440,-31.250000
1441,-27.343750
1442,-29.296875
1443,-25.390625
1444,-29.296875
1445,-29.296875
1446,-31.250000
1447,-33.203125
1448,-29.296875
1449,-35.156250
1450,-29.296875
1451,-33.203125
1452,-31.250000
1453,-35.156250
1454,-33.203125
1455,-31.250000
1456,-35.156250
1457,-33.203125
1458,-37.109375
1459,-33.203125
1460,-35.156250
1461,-35.156250
1462,-31.250000
1463,-37.109375
1464,-33.203125
1465,-35.156250
1466,-37.109375
1467,-33.203125
1468,-33.203125
1469,-33.203125
1470,-33.203125
1471,-35.156250
1472,-33.203125
1473,-33.203125
1474,-29.296875
1475,-33.203125
1476,-33.203125
1477,-33.203125
1478,-29.296875
1479,-31.250000
1480,-33.203125
1481,-29.296875
1482,-25.390625
1483,-31.250000
1484,-25.390625
1485,-29.296875
1486,-25.390625
1487,-25.390625
1488,-25.390625
1489,-25.390625
1490,-27.343750
1491,-23.437500
1492,-25.390625
1493,-21.484375
1494,-21.484375
1495,-21.484375
1496,-21.484375
1497,-19.531250
1498,-21.484375
1499,-19.531250
1500,-19.531250
1501,-17.578125
1502,-17.578125
1503,-17.578125
1504,-17.578125
1505,-15.625000
1506,-17.578125
1507,-13.671875
1508,-15.625000
1509,-13.671875
1510,-15.625000
1511,-15.625000
1512,-9.765625
1513,-17.578125
1514,-13.671875
1515,-9.765625
1516,-15.625000
1517,-15.625000
1518,-17.578125
1519,-17.578125
1520,-17.578125
1521,-15.625000
1522,-17.578125
1523,-17.578125
1524,-17.578125
1525,-19.531250
1526,-19.531250
1527,-21.484375
1528,-17.578125
1529,-21.484375
1530,-19.531250
1531,-19.531250
1532,-21.484375
1533,-19.531250
1534,-21.484375
1535,-21.484375
1536,-21.484375
1537,-23.437500
1538,-21.484375
1539,-21.484375
1540,-17.578125
1541,-19.531250
1542,-21.484375
1543,-19.531250
1544,-21.484375
1545,-23.437500
1546,-21.484375
1547,-23.437500
1548,-19.531250
1549,-23.437500
1550,-21.484375
1551,-19.531250
1552,-23.437500
1553,-23.437500
1554,-23.437500
1555,-21.484375
1556,-25.390625
1557,-23.437500
1558,-25.390625
1559,-23.437500
1560,-25.390625
1561,-23.437500
1562,-23.437500
1563,-25.390625
1564,-23.437500
1565,-25.390625
1566,-25.390625
1567,-25.390625
1568,-25.390625
1569,-21.484375
1570,-25.390625
1571,-25.390625
1572,-25.390625
1573,-25.390625
1574,-23.437500
1575,-25.390625
1576,-25.390625
1577,-23.437500
1578,-25.390625
1579,-23.437500
1580,-25.390625
1581,-21.484375
1582,-23.437500
1583,-23.437500
1584,-23.437500
1585,-25.390625
1586,-21.484375
1587,-25.390625
1588,-23.437500
1589,-23.437500
1590,-25.390625
1591,-25.390625
1592,-25.390625
1593,-19.531250
1594,-25.390625
1595,-21.484375
1596,-23.437500
1597,-25.390625
1598,-23.437500
1599,-25.390625
1600,-21.484375
1601,-23.437500
1602,-21.484375
1603,-23.437500
1604,-25.390625
1605,-23.437500
1606,-17.578125
1607,-23.437500
1608,-25.390625
1609,-23.437500
1610,-25.390625
1611,-23.437500
1612,-23.437500
1613,-25.390625
1614,-25.390625
1615,-25.390625
1616,-23.437500
1617,-25.390625
1618,-25.390625
1619,-25.390625
1620,-25.390625
1621,-25.390625
1622,-29.296875
1623,-27.343750
1624,-25.390625
1625,-27.343750
1626,-25.390625
1627,-25.390625
1628,-25.390625
1629,-29.296875
1630,-29.296875
1631,-29.296875
1632,-31.250000
1633,-27.343750
1634,-29.296875
1635,-37.109375
1636,-29.296875
1637,-31.250000
1638,-31.250000
1639,-31.250000
1640,-29.296875
1641,-29.296875
1642,-31.250000
1643,-29.296875
1644,-33.203125
1645,-33.203125
1646,-33.203125
1647,-33.203125
1648,-35.156250
1649,-33.203125
1650,-35.156250
1651,-35.156250
1652,-35.156250
1653,-37.109375
1654,-35.156250
1655,-37.109375
1656,-35.156250
1657,-37.109375
1658,-39.062500
1659,-39.062500
1660,-39.062500
1661,-41.015625
1662,-41.015625
1663,-39.062500
1664,-33.203125
1665,-41.015625
1666,-37.109375
1667,-41.015625
1668,-37.109375
1669,-44.921875
1670,-39.062500
1671,-35.156250
1672,-41.015625
1673,-37.109375
1674,-41.015625
1675,-35.156250
1676,-37.109375
1677,-35.156250
1678,-35.156250
1679,-37.109375
1680,-35.156250
1681,-37.109375
1682,-37.109375
1683,-35.156250
1684,-37.109375
1685,-35.156250
1686,-37.109375
1687,-35.156250
1688,-37.109375
1689,-37.109375
1690,-37.109375
1691,-33.203125
1692,-37.109375
1693,-25.390625
1694,-39.062500
1695,-35.156250
1696,-35.156250
1697,-37.109375
1698,-37.109375
1699,-39.062500
1700,-37.109375
1701,-37.109375
1702,-37.109375
1703,-37.109375
1704,-41.015625
1705,-37.109375
1706,-41.015625
1707,-39.062500
1708,-41.015625
1709,-41.015625
1710,-41.015625
1711,-41.015625
1712,-41.015625
1713,-41.015625
1714,-37.109375
1715,-39.062500
1716,-39.062500
1717,-41.015625
1718,-41.015625
1719,-41.015625
1720,-39.062500
1721,-41.015625
1722,-56.640625
1723,-41.015625
1724,-41.015625
1725,-41.015625
1726,-41.015625
1727,-39.062500
1728,-42.968750
1729,-41.015625
1730,-41.015625
1731,-41.015625
1732,-39.062500
1733,-44.921875
1734,-41.015625
1735,-41.015625
1736,-41.015625
1737,-41.015625
1738,-44.921875
1739,-39.062500
1740,-44.921875
1741,-41.015625
1742,-42.968750
1743,-39.062500
1744,-41.015625
1745,-41.015625
1746,-41.015625
1747,-44.921875
1748,-41.015625
1749,-44.921875
1750,-41.015625
1751,-35.156250
1752,-44.921875
1753,-41.015625
1754,-44.921875
1755,-41.015625
1756,-44.921875
1757,-44.921875
1758,-44.921875
1759,-46.875000
1760,-41.015625
1761,-46.875000
1762,-44.921875
1763,-42.968750
1764,-44.921875
1765,-44.921875
1766,-44.921875
1767,-42.968750
1768,-46.875000
1769,-44.921875
1770,-44.921875
1771,-44.921875
1772,-46.875000
1773,-46.875000
1774,-44.921875
1775,-46.875000
1776,-44.921875
1777,-46.875000
1778,-46.875000
1779,-44.921875
1780,-54.687500
1781,-44.921875
1782,-44.921875
1783,-44.921875
1784,-44.921875
1785,-46.875000
1786,-46.875000
1787,-46.875000
1788,-44.921875
1789,-48.828125
1790,-46.875000
1791,-44.921875
1792,-48.828125
1793,-37.109375
1794,-46.875000
1795,-46.875000
1796,-48.828125
1797,-44.921875
1798,-44.921875
1799,-44.921875
1800,-44.921875
1801,-50.781250
1802,-48.828125
1803,-50.781250
1804,-46.875000
1805,-44.921875
1806,-46.875000
1807,-44.921875
1808,-44.921875
1809,-42.968750
1810,-44.921875
1811,-48.828125
1812,-44.921875
1813,-46.875000
1814,-42.968750
1815,-46.875000
1816,-44.921875
1817,-42.968750
1818,-44.921875
1819,-41.015625
1820,-44.921875
1821,-44.921875
1822,-44.921875
1823,-44.921875
1824,-44.921875
1825,-46.875000
1826,-46.875000
1827,-44.921875
1828,-44.921875
1829,-44.921875
1830,-42.968750
1831,-44.921875
1832,-44.921875
1833,-44.921875
1834,-44.921875
1835,-44.921875
1836,-42.968750
1837,-41.015625
1838,-42.968750
1839,-41.015625
1840,-44.921875
1841,-41.015625
1842,-41.015625
1843,-41.015625
1844,-41.015625
1845,-39.062500
1846,-39.062500
1847,-41.015625
1848,-39.062500
1849,-39.062500
1850,-39.062500
1851,-41.015625
1852,-37.109375
1853,-37.109375
1854,-37.109375
1855,-39.062500
1856,-33.203125
1857,-35.156250
1858,-35.156250
1859,-33.203125
1860,-33.203125
1861,-33.203125
1862,-31.250000
1863,-29.296875
1864,-31.250000
1865,-29.296875
1866,-33.203125
1867,-29.296875
1868,-31.250000
1869,-29.296875
1870,-31.250000
1871,-33.203125
1872,-31.250000
1873,-29.296875
1874,-25.390625
1875,-31.250000
1876,-23.437500
1877,-29.296875
1878,-25.390625
1879,-25.390625
1880,-25.390625
1881,-23.437500
1882,-23.437500
1883,-23.437500
1884,-23.437500
1885,-23.437500
1886,-21.484375
1887,-25.390625
1888,-17.578125
1889,-23.437500
1890,-21.484375
1891,-21.484375
1892,-23.437500
1893,-17.578125
1894,-23.437500
1895,-17.578125
1896,-23.437500
1897,-17.578125
1898,-19.531250
1899,-19.531250
1900,-19.531250
1901,-21.484375
1902,-17.578125
1903,-19.531250
1904,-17.578125
1905,-19.531250
1906,-21.484375
1907,-17.578125
1908,-17.578125
1909,-21.484375
1910,-21.484375
1911,-19.531250
1912,-17.578125
1913,-17.578125
1914,-17.578125
1915,-19.531250
1916,-17.578125
1917,-25.390625
1918,-17.578125
1919,-15.625000
1920,-21.484375
1921,-17.578125
1922,-21.484375
1923,-17.578125
1924,-17.578125
1925,-19.531250
1926,-17.578125
1927,-19.531250
1928,-15.625000
1929,-29.296875
1930,-17.578125
1931,-15.625000
1932,-17.578125
1933,-9.765625
1934,-19.531250
1935,-15.625000
1936,-19.531250
1937,-17.578125
1938,-17.578125
1939,-17.578125
1940,-17.578125
1941,-15.625000
1942,-17.578125
1943,-17.578125
1944,-13.671875
1945,-17.578125
1946,-9.765625
1947,-15.625000
1948,-13.671875
1949,-15.625000
1950,-13.671875
1951,-13.671875
1952,-17.578125
1953,-13.671875
1954,-17.578125
1955,-9.765625
1956,-17.578125
1957,-17.578125
1958,-13.671875
1959,-13.671875
1960,-13.671875
1961,-15.625000
1962,-13.671875
1963,-15.625000
1964,-11.718750
1965,-15.625000
1966,-15.625000
1967,-17.578125
1968,-13.671875
1969,-13.671875
1970,-13.671875
1971,-13.671875
1972,-13.671875
1973,-13.671875
1974,-15.625000
1975,-13.671875
1976,-13.671875
1977,-13.671875
1978,-13.671875
1979,-13.671875
1980,-9.765625
1981,-13.671875
1982,-9.765625
1983,-9.765625
1984,-9.765625
1985,-9.765625
1986,-9.765625
1987,-1.953125
1988,-9.765625
1989,-7.812500
1990,-9.765625
1991,-5.859375
1992,-7.812500
1993,-9.765625
1994,-5.859375
1995,-7.812500
1996,-7.812500
1997,-9.765625
1998,-7.812500
1999,-7.812500
2000,-5.859375
2001,-5.859375
2002,-7.812500
2003,-1.953125
2004,0.000000
2005,-3.906250
2006,-1.953125
2007,-1.953125
2008,1.953125
2009,1.953125
2010,1.953125
2011,1.953125
2012,1.953125
2013,3.906250
2014,5.859375
2015,5.859375
2016,1.953125
2017,11.718750
2018,5.859375
2019,5.859375
2020,17.578125
2021,7.812500
2022,9.765625
2023,5.859375
2024,9.765625
2025,5.859375
2026,9.765625
2027,11.718750
2028,7.812500
2029,13.671875
2030,7.812500
2031,7.812500
2032,9.765625
2033,7.812500
2034,13.671875
2035,5.859375
2036,13.671875
2037,7.812500
2038,7.812500
2039,11.718750
2040,7.812500
2041,17.578125
2042,7.812500
2043,13.671875
2044,9.765625
2045,13.671875
2046,13.671875
2047,7.812500
2048,13.671875
2049,5.859375
2050,13.671875
2051,9.765625
2052,11.718750
2053,13.671875
2054,11.718750
2055,13.671875
2056,9.765625
2057,13.671875
2058,13.671875
2059,9.765625
2060,9.765625
2061,9.765625
2062,13.671875
2063,7.812500
2064,9.765625
2065,5.859375
2066,7.812500
2067,9.765625
2068,5.859375
2069,7.812500
2070,9.765625
2071,9.765625
2072,7.812500
2073,5.859375
2074,7.812500
2075,5.859375
2076,11.718750
2077,5.859375
2078,5.859375
2079,7.812500
2080,5.859375
2081,5.859375
2082,5.859375
2083,7.812500
2084,5.859375
2085,5.859375
2086,7.812500
2087,3.906250
2088,7.812500
2089,5.859375
2090,7.812500
2091,5.859375
2092,5.859375
2093,7.812500
2094,5.859375
2095,5.859375
2096,5.859375
2097,7.812500
2098,9.765625
2099,7.812500
2100,7.812500
2101,5.859375
2102,9.765625
2103,9.765625
2104,7.812500
2105,7.812500
2106,9.765625
2107,9.765625
2108,5.859375
2109,13.671875
2110,7.812500
2111,7.812500
2112,9.765625
2113,9.765625
2114,11.718750
2115,7.812500
2116,9.765625
2117,9.765625
2118,5.859375
2119,9.765625
2120,7.812500
2121,13.671875
2122,23.437500
2123,9.765625
2124,9.765625
2125,9.765625
2126,9.765625
2127,9.765625
2128,7.812500
2129,9.765625
2130,7.812500
2131,5.859375
2132,5.859375
2133,9.765625
2134,9.765625
2135,5.859375
2136,7.812500
2137,7.812500
2138,5.859375
2139,5.859375
2140,11.718750
2141,5.859375
2142,5.859375
2143,7.812500
2144,5.859375
2145,5.859375
2146,5.859375
2147,5.859375
2148,5.859375
2149,5.859375
2150,7.812500
2151,5.859375
2152,5.859375
2153,5.859375
2154,5.859375
2155,5.859375
2156,5.859375
2157,11.718750
2158,5.859375
2159,5.859375
2160,5.859375
2161,11.718750
2162,9.765625
2163,7.812500
2164,13.671875
2165,9.765625
2166,9.765625
2167,7.812500
2168,9.765625
2169,11.718750
2170,7.812500
2171,15.625000
2172,11.718750
2173,13.671875
2174,17.578125
2175,17.578125
2176,17.578125
2177,15.625000
2178,19.531250
2179,13.671875
2180,17.578125
2181,21.484375
2182,17.578125
2183,23.437500
2184,21.484375
2185,23.437500
2186,25.390625
2187,23.437500
2188,25.390625
2189,23.437500
2190,17.578125
2191,23.437500
2192,21.484375
2193,21.484375
2194,25.390625
2195,23.437500
2196,23.437500
2197,21.484375
2198,27.343750
2199,21.484375
2200,21.484375
2201,21.484375
2202,33.203125
2203,21.484375
2204,15.625000
2205,19.531250
2206,19.531250
2207,15.625000
2208,21.484375
2209,13.671875
2210,17.578125
2211,13.671875
2212,17.578125
2213,11.718750
2214,15.625000
2215,11.718750
2216,15.625000
2217,13.671875
2218,13.671875
2219,11.718750
2220,13.671875
2221,11.718750
2222,9.765625
2223,9.765625
2224,9.765625
2225,9.765625
2226,13.671875
2227,11.718750
2228,9.765625
2229,9.765625
2230,9.765625
2231,-3.906250
2232,5.859375
2233,7.812500
2234,5.859375
2235,7.812500
2236,5.859375
2237,5.859375
2238,5.859375
2239,5.859375
2240,5.859375
2241,1.953125
2242,5.859375
2243,1.953125
2244,5.859375
2245,1.953125
2246,1.953125
2247,1.953125
2248,1.953125
2249,1.953125
2250,0.000000
2251,1.953125
2252,5.859375
2253,1.953125
2254,1.953125
2255,0.000000
2256,0.000000
2257,0.000000
2258,1.953125
2259,-1.953125
2260,1.953125
2261,-1.953125
2262,-1.953125
2263,-1.953125
2264,-3.906250
2265,-1.953125
2266,-3.906250
2267,-5.859375
2268,1.953125
2269,-3.906250
2270,-3.906250
2271,-5.859375
2272,-3.906250
2273,-7.812500
2274,-7.812500
2275,-5.859375
2276,-7.812500
2277,-3.906250
2278,-7.812500
2279,-5.859375
2280,-7.812500
2281,-7.812500
2282,-5.859375
2283,-9.765625
2284,-7.812500
2285,-13.671875
2286,-7.812500
2287,-7.812500
2288,-9.765625
2289,-21.484375
2290,-13.671875
2291,-9.765625
2292,-9.765625
2293,-13.671875
2294,-9.765625
2295,-7.812500
2296,-9.765625
2297,-13.671875
2298,-9.765625
2299,-13.671875
2300,-9.765625
2301,-9.765625
2302,-13.671875
2303,-9.765625
2304,-9.765625
2305,-9.765625
2306,-13.671875
2307,-11.718750
2308,-11.718750
2309,-13.671875
2310,-11.718750
2311,-13.671875
2312,-9.765625
2313,-13.671875
2314,-13.671875
2315,-13.671875
2316,-13.671875
2317,-13.671875
2318,-13.671875
2319,-13.671875
2320,-13.671875
2321,-13.671875
2322,-13.671875
2323,-13.671875
2324,-13.671875
2325,-15.625000
2326,-13.671875
2327,-13.671875
2328,-13.671875
2329,-13.671875
2330,-15.625000
2331,-11.718750
2332,-13.671875
2333,-13.671875
2334,-13.671875
2335,-17.578125
2336,-13.671875
2337,-9.765625
2338,-13.671875
2339,-13.671875
2340,-13.671875
2341,-15.625000
2342,-15.625000
2343,-17.578125
2344,-15.625000
2345,-13.671875
2346,-15.625000
2347,-13.671875
2348,-13.671875
2349,-15.625000
2350,-15.625000
2351,-17.578125
2352,-13.671875
2353,-17.578125
2354,-15.625000
2355,-15.625000
2356,-19.531250
2357,-17.578125
2358,-17.578125
2359,-15.625000
2360,-17.578125
2361,-17.578125
2362,-17.578125
2363,-17.578125
2364,-19.531250
2365,-15.625000
2366,-19.531250
2367,-21.484375
2368,-19.531250
2369,-21.484375
2370,-21.484375
2371,-21.484375
2372,-21.484375
2373,-21.484375
2374,-25.390625
2375,-23.437500
2376,-29.296875
2377,-23.437500
2378,-23.437500
2379,-25.390625
2380,-21.484375
2381,-25.390625
2382,-29.296875
2383,-25.390625
2384,-25.390625
2385,-25.390625
2386,-27.343750
2387,-23.437500
2388,-25.390625
2389,-25.390625
2390,-25.390625
2391,-27.343750
2392,-25.390625
2393,-29.296875
2394,-23.437500
2395,-25.390625
2396,-25.390625
2397,-21.484375
2398,-25.390625
2399,-25.390625
2400,-27.343750
2401,-23.437500
2402,-27.343750
2403,-25.390625
2404,-25.390625
2405,-29.296875
2406,-23.437500
2407,-25.390625
2408,-23.437500
2409,-29.296875
2410,-25.390625
2411,-25.390625
2412,-25.390625
2413,-29.296875
2414,-25.390625
2415,-23.437500
2416,-25.390625
2417,-25.390625
2418,-25.390625
2419,-27.343750
2420,-23.437500
2421,-29.296875
2422,-27.343750
2423,-25.390625
2424,-25.390625
2425,-25.390625
2426,-25.390625
2427,-25.390625
2428,-27.343750
2429,-29.296875
2430,-25.390625
2431,-29.296875
2432,-25.390625
2433,-29.296875
2434,-31.250000
2435,-27.343750
2436,-29.296875
2437,-23.437500
2438,-31.250000
2439,-29.296875
2440,-29.296875
2441,-29.296875
2442,-17.578125
2443,-29.296875
2444,-33.203125
2445,-29.296875
2446,-31.250000
2447,-29.296875
2448,-31.250000
2449,-35.156250
2450,-29.296875
2451,-31.250000
2452,-31.250000
2453,-33.203125
2454,-29.296875
2455,-31.250000
2456,-33.203125
2457,-29.296875
2458,-33.203125
2459,-29.296875
2460,-33.203125
2461,-31.250000
2462,-33.203125
2463,-37.109375
2464,-31.250000
2465,-31.250000
2466,-31.250000
2467,-31.250000
2468,-35.156250
2469,-33.203125
2470,-35.156250
2471,-33.203125
2472,-33.203125
2473,-33.203125
2474,-29.296875
2475,-33.203125
2476,-33.203125
2477,-33.203125
2478,-33.203125
2479,-33.203125
2480,-33.203125
2481,-31.250000
2482,-33.203125
2483,-33.203125
2484,-33.203125
2485,-29.296875
2486,-31.250000
2487,-31.250000
2488,-31.250000
2489,-33.203125
2490,-33.203125
2491,-33.203125
2492,-29.296875
2493,-33.203125
2494,-33.203125
2495,-33.203125
2496,-37.109375
2497,-31.250000
2498,-33.203125
2499,-33.203125
2500,-31.250000
2501,-35.156250
2502,-33.203125
2503,-35.156250
2504,-23.437500
2505,-33.203125
2506,-33.203125
2507,-29.296875
2508,-35.156250
2509,-33.203125
2510,-33.203125
2511,-33.203125
2512,-35.156250
2513,-37.109375
2514,-33.203125
2515,-35.156250
2516,-33.203125
2517,-39.062500
2518,-33.203125
2519,-35.156250
2520,-35.156250
2521,-33.203125
2522,-35.156250
2523,-33.203125
2524,-35.156250
2525,-31.250000
2526,-35.156250
2527,-33.203125
2528,-33.203125
2529,-35.156250
2530,-31.250000
2531,-33.203125
2532,-35.156250
2533,-33.203125
2534,-37.109375
2535,-31.250000
2536,-33.203125
2537,-33.203125
2538,-33.203125
2539,-33.203125
2540,-31.250000
2541,-33.203125
2542,-29.296875
2543,-33.203125
2544,-31.250000
2545,-33.203125
2546,-33.203125
2547,-29.296875
2548,-31.250000
2549,-29.296875
2550,-31.250000
2551,-29.296875
2552,-31.250000
2553,-31.250000
2554,-25.390625
2555,-33.203125
2556,-29.296875
2557,-31.250000
2558,-29.296875
2559,-29.296875
2560,-31.250000
2561,-29.296875
2562,-29.296875
2563,-29.296875
2564,-33.203125
2565,-29.296875
2566,-31.250000
2567,-31.250000
2568,-29.296875
2569,-33.203125
2570,-29.296875
2571,-31.250000
2572,-29.296875
2573,-29.296875
2574,-31.250000
2575,-29.296875
2576,-31.250000
2577,-29.296875
2578,-29.296875
2579,-31.250000
2580,-29.296875
2581,-31.250000
2582,-25.390625
2583,-29.296875
2584,-29.296875
2585,-29.296875
2586,-31.250000
2587,-29.296875
2588,-31.250000
2589,-29.296875
2590,-31.250000
2591,-29.296875
2592,-29.296875
2593,-33.203125
2594,-25.390625
2595,-17.578125
2596,-29.296875
2597,-31.250000
2598,-29.296875
2599,-29.296875
2600,-31.250000
2601,-25.390625
2602,-31.250000
2603,-29.296875
2604,-31.250000
2605,-29.296875
2606,-29.296875
2607,-33.203125
2608,-29.296875
2609,-33.203125
2610,-29.296875
2611,-31.250000
2612,-29.296875
2613,-31.250000
2614,-23.437500
2615,-29.296875
2616,-31.250000
2617,-29.296875
2618,-33.203125
2619,-31.250000
2620,-33.203125
2621,-33.203125
2622,-31.250000
2623,-33.203125
2624,-31.250000
2625,-33.203125
2626,-33.203125
2627,-33.203125
2628,-35.156250
2629,-33.203125
2630,-35.156250
2631,-48.828125
2632,-35.156250
2633,-35.156250
2634,-33.203125
2635,-39.062500
2636,-35.156250
2637,-37.109375
2638,-37.109375
2639,-37.109375
2640,-39.062500
2641,-42.968750
2642,-39.062500
2643,-37.109375
2644,-41.015625
2645,-44.921875
2646,-41.015625
2647,-41.015625
2648,-41.015625
2649,-41.015625
2650,-41.015625
2651,-41.015625
2652,-41.015625
2653,-41.015625
2654,-41.015625
2655,-44.921875
2656,-46.875000
2657,-44.921875
2658,-44.921875
2659,-42.968750
2660,-46.875000
2661,-44.921875
2662,-46.875000
2663,-44.921875
2664,-48.828125
2665,-46.875000
2666,-48.828125
2667,-50.781250
2668,-48.828125
2669,-50.781250
2670,-48.828125
2671,-50.781250
2672,-48.828125
2673,-48.828125
2674,-46.875000
2675,-46.875000
2676,-48.828125
2677,-50.781250
2678,-46.875000
2679,-54.687500
2680,-48.828125
2681,-48.828125
2682,-50.781250
2683,-48.828125
2684,-46.875000
2685,-44.921875
2686,-48.828125
2687,-48.828125
2688,-48.828125
2689,-46.875000
2690,-48.828125
2691,-44.921875
2692,-48.828125
2693,-48.828125
2694,-48.828125
2695,-48.828125
2696,-44.921875
2697,-48.828125
2698,-44.921875
2699,-48.828125
2700,-44.921875
2701,-48.828125
2702,-48.828125
2703,-46.875000
2704,-52.734375
2705,-44.921875
2706,-48.828125
2707,-41.015625
2708,-48.828125
2709,-48.828125
2710,-46.875000
2711,-50.781250
2712,-46.875000
2713,-50.781250
2714,-46.875000
2715,-46.875000
2716,-46.875000
2717,-48.828125
2718,-46.875000
2719,-48.828125
2720,-44.921875
2721,-46.875000
2722,-46.875000
2723,-46.875000
2724,-46.875000
2725,-44.921875
2726,-46.875000
2727,-46.875000
2728,-46.875000
2729,-44.921875
2730,-44.921875
2731,-46.875000
2732,-44.921875
2733,-44.921875
2734,-44.921875
2735,-44.921875
2736,-41.015625
2737,-44.921875
2738,-44.921875
2739,-42.968750
2740,-44.921875
2741,-44.921875
2742,-46.875000
2743,-44.921875
2744,-44.921875
2745,-44.921875
2746,-44.921875
2747,-46.875000
2748,-42.968750
2749,-46.875000
2750,-44.921875
2751,-44.921875
2752,-46.875000
2753,-44.921875
2754,-48.828125
2755,-44.921875
2756,-46.875000
2757,-44.921875
2758,-44.921875
2759,-46.875000
2760,-44.921875
2761,-46.875000
2762,-44.921875
2763,-46.875000
2764,-42.968750
2765,-44.921875
2766,-46.875000
2767,-41.015625
2768,-46.875000
2769,-41.015625
2770,-46.875000
2771,-44.921875
2772,-44.921875
2773,-46.875000
2774,-41.015625
2775,-44.921875
2776,-42.968750
2777,-46.875000
2778,-44.921875
2779,-44.921875
2780,-44.921875
2781,-41.015625
2782,-44.921875
2783,-41.015625
2784,-41.015625
2785,-41.015625
2786,-41.015625
2787,-44.921875
2788,-41.015625
2789,-44.921875
2790,-33.203125
2791,-41.015625
2792,-41.015625
2793,-41.015625
2794,-41.015625
2795,-35.156250
2796,-41.015625
2797,-37.109375
2798,-39.062500
2799,-37.109375
2800,-37.109375
2801,-37.109375
2802,-35.156250
2803,-37.109375
2804,-35.156250
2805,-48.828125
2806,-33.203125
2807,-33.203125
2808,-33.203125
2809,-31.250000
2810,-29.296875
2811,-29.296875
2812,-31.250000
2813,-31.250000
2814,-33.203125
2815,-33.203125
2816,-29.296875
2817,-31.250000
2818,-29.296875
2819,-25.390625
2820,-29.296875
2821,-29.296875
2822,-29.296875
2823,-29.296875
2824,-29.296875
2825,-29.296875
2826,-29.296875
2827,-29.296875
2828,-29.296875
2829,-29.296875
2830,-29.296875
2831,-29.296875
2832,-25.390625
2833,-29.296875
2834,-29.296875
2835,-25.390625
2836,-29.296875
2837,-25.390625
2838,-29.296875
2839,-29.296875
2840,-29.296875
2841,-29.296875
2842,-25.390625
2843,-25.390625
2844,-25.390625
2845,-29.296875
2846,-29.296875
2847,-25.390625
2848,-29.296875
2849,-29.296875
2850,-29.296875
2851,-25.390625
2852,-29.296875
2853,-29.296875
2854,-29.296875
2855,-29.296875
2856,-29.296875
2857,-25.390625
2858,-25.390625
2859,-29.296875
2860,-25.390625
2861,-29.296875
2862,-25.390625
2863,-29.296875
2864,-25.390625
2865,-29.296875
2866,-29.296875
2867,-25.390625
2868,-29.296875
2869,-25.390625
2870,-25.390625
2871,-29.296875
2872,-27.343750
2873,-29.296875
2874,-29.296875
2875,-25.390625
2876,-29.296875
2877,-29.296875
2878,-29.296875
2879,-27.343750
2880,-25.390625
2881,-25.390625
2882,-27.343750
2883,-29.296875
2884,-25.390625
2885,-29.296875
2886,-27.343750
2887,-25.390625
2888,-29.296875
2889,-25.390625
2890,-29.296875
2891,-25.390625
2892,-25.390625
2893,-29.296875
2894,-31.250000
2895,-25.390625
2896,-25.390625
2897,-29.296875
2898,-29.296875
2899,-29.296875
2900,-29.296875
2901,-29.296875
2902,-25.390625
2903,-25.390625
2904,-27.343750
2905,-25.390625
2906,-23.437500
2907,-27.343750
2908,-25.390625
2909,-25.390625
2910,-25.390625
2911,-25.390625
2912,-25.390625
2913,-29.296875
2914,-25.390625
2915,-25.390625
2916,-29.296875
2917,-23.437500
2918,-25.390625
2919,-29.296875
2920,-25.390625
2921,-25.390625
2922,-25.390625
2923,-23.437500
2924,-25.390625
2925,-19.531250
2926,-25.390625
2927,-23.437500
2928,-25.390625
2929,-23.437500
2930,-25.390625
2931,-23.437500
2932,-25.390625
2933,-23.437500
2934,-21.484375
2935,-23.437500
2936,-23.437500
2937,-23.437500
2938,-23.437500
2939,-25.390625
2940,-23.437500
2941,-25.390625
2942,-23.437500
2943,-25.390625
2944,-21.484375
2945,-23.437500
2946,-25.390625
2947,-21.484375
2948,-25.390625
2949,-21.484375
2950,-25.390625
2951,-21.484375
2952,-23.437500
2953,-25.390625
2954,-21.484375
2955,-25.390625
2956,-19.531250
2957,-25.390625
2958,-23.437500
2959,-25.390625
2960,-25.390625
2961,-21.484375
2962,-23.437500
2963,-19.531250
2964,-25.390625
2965,-23.437500
2966,-21.484375
2967,-25.390625
2968,-21.484375
2969,-23.437500
2970,-23.437500
2971,-21.484375
2972,-19.531250
2973,-23.437500
2974,-23.437500
2975,-21.484375
2976,-23.437500
2977,-21.484375
2978,-19.531250
2979,-21.484375
2980,-21.484375
2981,-23.437500
2982,-21.484375
2983,-21.484375
2984,-23.437500
2985,-19.531250
2986,-19.531250
2987,-21.484375
2988,-23.437500
2989,-19.531250
2990,-23.437500
2991,-23.437500
2992,-21.484375
2993,-21.484375
2994,-17.578125
2995,-23.437500
2996,-21.484375
2997,-19.531250
2998,-23.437500
2999,-19.531250
3000,-19.531250
3001,-19.531250
3002,-21.484375
3003,-21.484375
3004,-21.484375
3005,-23.437500
3006,-19.531250
3007,-23.437500
3008,-21.484375
3009,-23.437500
3010,-23.437500
3011,-21.484375
3012,-23.437500
3013,-23.437500
3014,-19.531250
3015,-23.437500
3016,-23.437500
3017,-25.390625
3018,-29.296875
3019,-23.437500
3020,-19.531250
3021,-25.390625
3022,-23.437500
3023,-25.390625
3024,-23.437500
3025,-23.437500
3026,-25.390625
3027,-23.437500
3028,-25.390625
3029,-23.437500
3030,-23.437500
3031,-25.390625
3032,-21.484375
3033,-25.390625
3034,-21.484375
3035,-29.296875
3036,-19.531250
3037,-21.484375
3038,-23.437500
3039,-23.437500
3040,-25.390625
3041,-23.437500
3042,-23.437500
3043,-9.765625
3044,-23.437500
3045,-23.437500
3046,-23.437500
3047,-23.437500
3048,-23.437500
3049,-23.437500
3050,-29.296875
3051,-25.390625
3052,-23.437500
3053,-23.437500
3054,-25.390625
3055,-25.390625
3056,-21.484375
3057,-23.437500
3058,-23.437500
3059,-27.343750
3060,-25.390625
3061,-25.390625
3062,-25.390625
3063,-23.437500
3064,-25.390625
3065,-23.437500
3066,-25.390625
3067,-25.390625
3068,-25.390625
3069,-25.390625
3070,-23.437500
3071,-25.390625
3072,-23.437500
3073,-23.437500
3074,-25.390625
3075,-21.484375
3076,-25.390625
3077,-23.437500
3078,-25.390625
3079,-21.484375
3080,-25.390625
3081,-23.437500
3082,-19.531250
3083,-25.390625
3084,-19.531250
3085,-23.437500
3086,-21.484375
3087,-19.531250
3088,-23.437500
3089,-19.531250
3090,-19.531250
3091,-21.484375
3092,-21.484375
3093,-23.437500
3094,-21.484375
3095,-25.390625
3096,-23.437500
3097,-23.437500
3098,-23.437500
3099,-25.390625
3100,-25.390625
3101,-23.437500
3102,-25.390625
3103,-25.390625
3104,-25.390625
3105,-29.296875
3106,-25.390625
3107,-31.250000
3108,-25.390625
3109,-29.296875
3110,-25.390625
3111,-31.250000
3112,-29.296875
3113,-17.578125
3114,-29.296875
3115,-31.250000
3116,-33.203125
3117,-31.250000
3118,-35.156250
3119,-33.203125
3120,-33.203125
3121,-33.203125
3122,-33.203125
3123,-33.203125
3124,-33.203125
3125,-33.203125
3126,-33.203125
3127,-33.203125
3128,-35.156250
3129,-33.203125
3130,-35.156250
3131,-35.156250
3132,-35.156250
3133,-35.156250
3134,-35.156250
3135,-39.062500
3136,-35.156250
3137,-35.156250
3138,-39.062500
3139,-35.156250
3140,-37.109375
3141,-35.156250
3142,-29.296875
3143,-35.156250
3144,-37.109375
3145,-37.109375
3146,-39.062500
3147,-37.109375
3148,-35.156250
3149,-33.203125
3150,-35.156250
3151,-35.156250
3152,-39.062500
3153,-35.156250
3154,-41.015625
3155,-39.062500
3156,-39.062500
3157,-39.062500
3158,-37.109375
3159,-37.109375
3160,-39.062500
3161,-41.015625
3162,-39.062500
3163,-41.015625
3164,-39.062500
3165,-41.015625
3166,-39.062500
3167,-41.015625
3168,-41.015625
3169,-41.015625
3170,-41.015625
3171,-41.015625
3172,-41.015625
3173,-41.015625
3174,-41.015625
3175,-41.015625
3176,-41.015625
3177,-42.968750
3178,-41.015625
3179,-41.015625
3180,-41.015625
3181,-41.015625
3182,-41.015625
3183,-41.015625
3184,-41.015625
3185,-42.968750
3186,-42.968750
3187,-42.968750
3188,-44.921875
3189,-44.921875
3190,-42.968750
3191,-41.015625
3192,-41.015625
3193,-44.921875
3194,-41.015625
3195,-44.921875
3196,-41.015625
3197,-42.968750
3198,-44.921875
3199,-41.015625
3200,-31.250000
3201,-41.015625
3202,-48.828125
3203,-44.921875
3204,-44.921875
3205,-44.921875
3206,-44.921875
3207,-46.875000
3208,-44.921875
3209,-46.875000
3210,-42.968750
3211,-48.828125
3212,-44.921875
3213,-46.875000
3214,-46.875000
3215,-46.875000
3216,-46.875000
3217,-44.921875
3218,-44.921875
3219,-41.015625
3220,-48.828125
3221,-48.828125
3222,-48.828125
3223,-48.828125
3224,-46.875000
3225,-48.828125
3226,-44.921875
3227,-48.828125
3228,-46.875000
3229,-44.921875
3230,-44.921875
3231,-46.875000
3232,-48.828125
3233,-44.921875
3234,-48.828125
3235,-44.921875
3236,-46.875000
3237,-44.921875
3238,-46.875000
3239,-48.828125
3240,-42.968750
3241,-44.921875
3242,-46.875000
3243,-46.875000
3244,-46.875000
3245,-44.921875
3246,-46.875000
3247,-44.921875
3248,-44.921875
3249,-44.921875
3250,-42.968750
3251,-44.921875
3252,-44.921875
3253,-44.921875
3254,-46.875000
3255,-46.875000
3256,-48.828125
3257,-46.875000
3258,-52.734375
3259,-46.875000
3260,-46.875000
3261,-48.828125
3262,-48.828125
3263,-44.921875
3264,-48.828125
3265,-44.921875
3266,-48.828125
3267,-44.921875
3268,-44.921875
3269,-46.875000
3270,-44.921875
3271,-48.828125
3272,-44.921875
3273,-48.828125
3274,-48.828125
3275,-44.921875
3276,-46.875000
3277,-44.921875
3278,-46.875000
3279,-46.875000
3280,-48.828125
3281,-44.921875
3282,-44.921875
3283,-46.875000
3284,-44.921875
3285,-48.828125
3286,-44.921875
3287,-44.921875
3288,-46.875000
3289,-46.875000
3290,-46.875000
3291,-44.921875
3292,-50.781250
3293,-44.921875
3294,-44.921875
3295,-44.921875
3296,-46.875000
3297,-46.875000
3298,-46.875000
3299,-46.875000
3300,-44.921875
3301,-44.921875
3302,-44.921875
3303,-44.921875
3304,-48.828125
3305,-44.921875
3306,-44.921875
3307,-44.921875
3308,-50.781250
3309,-44.921875
3310,-44.921875
3311,-46.875000
3312,-44.921875
3313,-46.875000
3314,-44.921875
3315,-46.875000
3316,-46.875000
3317,-44.921875
3318,-48.828125
3319,-44.921875
3320,-46.875000
3321,-44.921875
3322,-46.875000
3323,-44.921875
3324,-44.921875
3325,-44.921875
3326,-44.921875
3327,-46.875000
3328,-44.921875
3329,-44.921875
3330,-48.828125
3331,-44.921875
3332,-46.875000
3333,-46.875000
3334,-46.875000
3335,-46.875000
3336,-44.921875
3337,-48.828125
3338,-44.921875
3339,-48.828125
3340,-46.875000
3341,-41.015625
3342,-46.875000
3343,-44.921875
3344,-46.875000
3345,-50.781250
3346,-48.828125
3347,-46.875000
3348,-48.828125
3349,-44.921875
3350,-44.921875
3351,-48.828125
3352,-44.921875
3353,-46.875000
3354,-48.828125
3355,-44.921875
3356,-44.921875
3357,-44.921875
3358,-46.875000
3359,-46.875000
3360,-44.921875
3361,-44.921875
3362,-44.921875
3363,-46.875000
3364,-42.968750
3365,-44.921875
3366,-42.968750
3367,-44.921875
3368,-44.921875
3369,-44.921875
3370,-44.921875
3371,-44.921875
3372,-44.921875
3373,-41.015625
3374,-41.015625
3375,-44.921875
3376,-42.968750
3377,-44.921875
3378,-46.875000
3379,-44.921875
3380,-44.921875
3381,-42.968750
3382,-44.921875
3383,-44.921875
3384,-44.921875
3385,-46.875000
3386,-41.015625
3387,-44.921875
3388,-41.015625
3389,-44.921875
3390,-44.921875
3391,-44.921875
3392,-46.875000
3393,-41.015625
3394,-44.921875
3395,-41.015625
3396,-44.921875
3397,-44.921875
3398,-41.015625
3399,-37.109375
3400,-41.015625
3401,-44.921875
3402,-41.015625
3403,-44.921875
3404,-42.968750
3405,-42.968750
3406,-44.921875
3407,-41.015625
3408,-44.921875
3409,-41.015625
3410,-41.015625
3411,-41.015625
3412,-41.015625
3413,-44.921875
3414,-41.015625
3415,-41.015625
3416,-41.015625
3417,-41.015625
3418,-41.015625
3419,-41.015625
3420,-41.015625
3421,-37.109375
3422,-39.062500
3423,-39.062500
3424,-41.015625
3425,-41.015625
3426,-39.062500
3427,-41.015625
3428,-41.015625
3429,-37.109375
3430,-41.015625
3431,-37.109375
3432,-39.062500
3433,-35.156250
3434,-41.015625
3435,-35.156250
3436,-37.109375
3437,-37.109375
3438,-35.156250
3439,-37.109375
3440,-35.156250
3441,-33.203125
3442,-33.203125
3443,-35.156250
3444,-33.203125
3445,-33.203125
3446,-35.156250
3447,-35.156250
3448,-33.203125
3449,-33.203125
3450,-37.109375
3451,-33.203125
3452,-35.156250
3453,-31.250000
3454,-33.203125
3455,-33.203125
3456,-19.531250
3457,-33.203125
3458,-29.296875
3459,-31.250000
3460,-29.296875
3461,-39.062500
3462,-29.296875
3463,-33.203125
3464,-31.250000
3465,-31.250000
3466,-29.296875
3467,-31.250000
3468,-29.296875
3469,-29.296875
3470,-33.203125
3471,-31.250000
3472,-31.250000
3473,-29.296875
3474,-29.296875
3475,-29.296875
3476,-29.296875
3477,-56.640625
3478,-29.296875
3479,-31.250000
3480,-29.296875
3481,-33.203125
3482,-31.250000
3483,-29.296875
3484,-31.250000
3485,-31.250000
3486,-33.203125
3487,-29.296875
3488,-31.250000
3489,-25.390625
3490,-19.531250
3491,-35.156250
3492,-31.250000
3493,-33.203125
3494,-29.296875
3495,-33.203125
3496,-29.296875
3497,-31.250000
3498,-23.437500
3499,-31.250000
3500,-29.296875
3501,-29.296875
3502,-29.296875
3503,-23.437500
3504,-29.296875
3505,-25.390625
3506,-23.437500
3507,-19.531250
3508,-21.484375
3509,-19.531250
3510,-17.578125
3511,-19.531250
3512,-17.578125
3513,-15.625000
3514,-17.578125
3515,-23.437500
3516,-13.671875
3517,-13.671875
3518,-13.671875
3519,-11.718750
3520,-9.765625
3521,-13.671875
3522,-9.765625
3523,-9.765625
3524,-7.812500
3525,-9.765625
3526,-9.765625
3527,-5.859375
3528,-9.765625
3529,-7.812500
3530,-9.765625
3531,-9.765625
3532,-7.812500
3533,-5.859375
3534,-5.859375
3535,-5.859375
3536,-1.953125
3537,-5.859375
3538,-3.906250
3539,-7.812500
3540,-1.953125
3541,-3.906250
3542,-3.906250
3543,-3.906250
3544,-1.953125
3545,-3.906250
3546,-1.953125
3547,-3.906250
3548,-11.718750
3549,-3.906250
3550,0.000000
3551,-1.953125
3552,-1.953125
3553,-3.906250
3554,-1.953125
3555,-1.953125
3556,-1.953125
3557,1.953125
3558,0.000000
3559,1.953125
3560,0.000000
3561,-1.953125
3562,0.000000
3563,0.000000
3564,1.953125
3565,-1.953125
3566,1.953125
3567,-1.953125
3568,-1.953125
3569,0.000000
3570,0.000000
3571,1.953125
3572,0.000000
3573,1.953125
3574,0.000000
3575,-1.953125
3576,1.953125
3577,0.000000
3578,1.953125
3579,1.953125
3580,1.953125
3581,1.953125
3582,1.953125
3583,1.953125
3584,1.953125
3585,1.953125
3586,0.000000
3587,3.906250
3588,1.953125
3589,0.000000
3590,3.906250
3591,0.000000
3592,1.953125
3593,0.000000
3594,1.953125
3595,0.000000
3596,0.000000
3597,0.000000
3598,-3.906250
3599,0.000000
3600,-3.906250
3601,0.000000
3602,-3.906250
3603,-3.906250
3604,-3.906250
3605,-3.906250
3606,-1.953125
3607,-7.812500
3608,-5.859375
3609,-7.812500
3610,-5.859375
3611,-5.859375
3612,-7.812500
3613,-7.812500
3614,-9.765625
3615,-7.812500
3616,-9.765625
3617,-9.765625
3618,-5.859375
3619,-13.671875
3620,-9.765625
3621,-13.671875
3622,-7.812500
3623,-13.671875
3624,-11.718750
3625,-7.812500
3626,-9.765625
3627,-9.765625
3628,-9.765625
3629,-9.765625
3630,-9.765625
3631,-9.765625
3632,-7.812500
3633,-9.765625
3634,-5.859375
3635,1.953125
3636,-7.812500
3637,-7.812500
3638,-7.812500
3639,-3.906250
3640,-7.812500
3641,-3.906250
3642,-5.859375
3643,-7.812500
3644,-3.906250
3645,-5.859375
3646,-7.812500
3647,-5.859375
3648,-5.859375
3649,-3.906250
3650,-1.953125
3651,-5.859375
3652,-3.906250
3653,-3.906250
3654,-3.906250
3655,-1.953125
3656,-3.906250
3657,-1.953125
3658,-3.906250
3659,-3.906250
3660,-1.953125
3661,-3.906250
3662,-1.953125
3663,-3.906250
3664,-1.953125
3665,-3.906250
3666,-3.906250
3667,-1.953125
3668,-17.578125
3669,-3.906250
3670,-5.859375
3671,-3.906250
3672,-5.859375
3673,-5.859375
3674,-3.906250
3675,-3.906250
3676,-3.906250
3677,-5.859375
3678,-3.906250
3679,-3.906250
3680,-5.859375
3681,-1.953125
3682,-5.859375
3683,-3.906250
3684,-3.906250
3685,-1.953125
3686,-3.906250
3687,-3.906250
3688,-3.906250
3689,-5.859375
3690,-1.953125
3691,-5.859375
3692,-1.953125
3693,-5.859375
3694,-1.953125
3695,-9.765625
3696,-1.953125
3697,-7.812500
3698,-3.906250
3699,-1.953125
3700,-7.812500
3701,-1.953125
3702,-9.765625
3703,-3.906250
3704,-5.859375
3705,-7.812500
3706,-1.953125
3707,-5.859375
3708,-3.906250
3709,-9.765625
3710,-1.953125
3711,-7.812500
3712,-5.859375
3713,-5.859375
3714,-7.812500
3715,-5.859375
3716,-3.906250
3717,-7.812500
3718,-7.812500
3719,-9.765625
3720,-3.906250
3721,-5.859375
3722,-5.859375
3723,-3.906250
3724,-7.812500
3725,-3.906250
3726,-7.812500
3727,-5.859375
3728,-3.906250
3729,-5.859375
3730,-5.859375
3731,-7.812500
3732,-3.906250
3733,-5.859375
3734,-3.906250
3735,-3.906250
3736,-3.906250
3737,-1.953125
3738,-5.859375
3739,-1.953125
3740,-1.953125
3741,-1.953125
3742,-1.953125
3743,-5.859375
3744,-1.953125
3745,-3.906250
3746,-1.953125
3747,-1.953125
3748,-5.859375
3749,-1.953125
3750,-3.906250
3751,-1.953125
3752,-5.859375
3753,-1.953125
3754,-1.953125
3755,-3.906250
3756,-1.953125
3757,-1.953125
3758,-1.953125
3759,-3.906250
3760,-3.906250
3761,-3.906250
3762,-1.953125
3763,-1.953125
3764,-1.953125
3765,-1.953125
3766,-3.906250
3767,-1.953125
3768,-1.953125
3769,-3.906250
3770,-3.906250
3771,-3.906250
3772,-1.953125
3773,-3.906250
3774,-3.906250
3775,-1.953125
3776,-3.906250
3777,-3.906250
3778,-3.906250
3779,-1.953125
3780,-17.578125
3781,-3.906250
3782,-7.812500
3783,-5.859375
3784,-1.953125
3785,-3.906250
3786,-1.953125
3787,-1.953125
3788,-3.906250
3789,-1.953125
3790,-3.906250
3791,-1.953125
3792,-3.906250
3793,0.000000
3794,-3.906250
3795,-3.906250
3796,-1.953125
3797,-5.859375
3798,-1.953125
3799,-5.859375
3800,-3.906250
3801,-5.859375
3802,-3.906250
3803,-5.859375
3804,-5.859375
3805,-5.859375
3806,-5.859375
3807,-7.812500
3808,-7.812500
3809,-13.671875
3810,-7.812500
3811,-7.812500
3812,-5.859375
3813,-5.859375
3814,-7.812500
3815,-5.859375
3816,-3.906250
3817,-9.765625
3818,-5.859375
3819,-7.812500
3820,-7.812500
3821,-5.859375
3822,-9.765625
3823,-5.859375
3824,-3.906250
3825,-5.859375
3826,-7.812500
3827,-7.812500
3828,-7.812500
3829,-7.812500
3830,-5.859375
3831,-7.812500
3832,-7.812500
3833,-5.859375
3834,-5.859375
3835,-7.812500
3836,-9.765625
3837,-9.765625
3838,-29.296875
3839,-9.765625
3840,-7.812500
3841,-7.812500
3842,-7.812500
3843,-9.765625
3844,-7.812500
3845,-7.812500
3846,-9.765625
3847,-5.859375
3848,-9.765625
3849,-9.765625
3850,-9.765625
3851,-7.812500
3852,-7.812500
3853,-7.812500
3854,-9.765625
3855,-9.765625
3856,-7.812500
3857,-9.765625
3858,-9.765625
3859,-13.671875
3860,-7.812500
3861,-7.812500
3862,-9.765625
3863,-7.812500
3864,-9.765625
3865,-9.765625
3866,-5.859375
3867,-7.812500
3868,-9.765625
3869,-7.812500
3870,-7.812500
3871,-5.859375
3872,-7.812500
3873,-5.859375
3874,-9.765625
3875,-7.812500
3876,-9.765625
3877,-7.812500
3878,-7.812500
3879,-7.812500
3880,-7.812500
3881,-5.859375
3882,-5.859375
3883,-5.859375
3884,-9.765625
3885,-5.859375
3886,-5.859375
3887,-5.859375
3888,-5.859375
3889,-5.859375
3890,-7.812500
3891,-5.859375
3892,-9.765625
3893,-5.859375
3894,-5.859375
3895,-5.859375
3896,-9.765625
3897,-5.859375
3898,-5.859375
3899,-7.812500
3900,-3.906250
3901,-5.859375
3902,-5.859375
3903,-5.859375
3904,-7.812500
3905,-5.859375
3906,-5.859375
3907,-3.906250
3908,-1.953125
3909,-3.906250
3910,-3.906250
3911,-3.906250
3912,-1.953125
3913,-3.906250
3914,-3.906250
3915,-3.906250
3916,-5.859375
3917,-5.859375
3918,-5.859375
3919,-3.906250
3920,-1.953125
3921,-1.953125
3922,-1.953125
3923,-5.859375
3924,-1.953125
3925,-9.765625
3926,-1.953125
3927,-3.906250
3928,-1.953125
3929,-1.953125
3930,-3.906250
3931,-1.953125
3932,-1.953125
3933,-1.953125
3934,-1.953125
3935,-3.906250
3936,0.000000
3937,-3.906250
3938,0.000000
3939,-1.953125
3940,-1.953125
3941,-3.906250
3942,-1.953125
3943,-1.953125
3944,-1.953125
3945,0.000000
3946,-5.859375
3947,-1.953125
3948,-5.859375
3949,-1.953125
3950,-1.953125
3951,-1.953125
3952,-3.906250
3953,-3.906250
3954,11.718750
3955,-3.906250
3956,-1.953125
3957,-3.906250
3958,-1.953125
3959,-3.906250
3960,-1.953125
3961,-3.906250
3962,-3.906250
3963,-1.953125
3964,-3.906250
3965,-1.953125
3966,-1.953125
3967,-3.906250
3968,-3.906250
3969,-1.953125
3970,-1.953125
3971,-1.953125
3972,-1.953125
3973,-1.953125
3974,-1.953125
3975,0.000000
3976,-1.953125
3977,-3.906250
3978,0.000000
3979,-1.953125
3980,-1.953125
3981,-1.953125
3982,-1.953125
3983,-1.953125
3984,-1.953125
3985,0.000000
3986,-1.953125
3987,-1.953125
3988,-1.953125
3989,-3.906250
3990,0.000000
3991,-3.906250
3992,0.000000
3993,-1.953125
3994,-1.953125
3995,-3.906250
3996,-1.953125
3997,0.000000
3998,-3.906250
3999,-1.953125
4000,-1.953125
4001,-1.953125
4002,-1.953125
4003,-3.906250
4004,0.000000
4005,-1.953125
4006,-1.953125
4007,-5.859375
4008,-3.906250
4009,1.953125
4010,-5.859375
4011,0.000000
4012,-1.953125
4013,-1.953125
4014,-3.906250
4015,-3.906250
4016,-1.953125
4017,-3.906250
4018,-1.953125
4019,-3.906250
4020,-1.953125
4021,-3.906250
4022,-1.953125
4023,-1.953125
4024,-3.906250
4025,0.000000
4026,-1.953125
4027,-3.906250
4028,-3.906250
4029,-5.859375
4030,-1.953125
4031,-3.906250
4032,-1.953125
4033,-1.953125
4034,-1.953125
4035,-1.953125
4036,-3.906250
4037,0.000000
4038,-1.953125
4039,-1.953125
4040,-1.953125
4041,-7.812500
4042,-1.953125
4043,-7.812500
4044,-1.953125
4045,-3.906250
4046,-1.953125
4047,-1.953125
4048,-3.906250
4049,-1.953125
4050,-3.906250
4051,-1.953125
4052,-3.906250
4053,-1.953125
4054,-1.953125
4055,-3.906250
4056,-1.953125
4057,-5.859375
4058,-5.859375
4059,-3.906250
4060,-3.906250
4061,-3.906250
4062,-5.859375
4063,0.000000
4064,-3.906250
4065,-1.953125
4066,-1.953125
4067,-3.906250
4068,-3.906250
4069,-5.859375
4070,-7.812500
4071,-3.906250
4072,-3.906250
4073,-1.953125
4074,-3.906250
4075,-1.953125
4076,-5.859375
4077,-3.906250
4078,-3.906250
4079,-3.906250
4080,-1.953125
4081,-5.859375
4082,-1.953125
4083,-3.906250
4084,-3.906250
4085,-3.906250
4086,-7.812500
4087,-3.906250
4088,-3.906250
4089,-3.906250
4090,-3.906250
4091,-5.859375
4092,-1.953125
4093,-5.859375
4094,-1.953125
4095,-1.953125
4096,-5.859375
4097,-3.906250
4098,-3.906250
4099,-9.765625
4100,-5.859375
4101,-1.953125
4102,-1.953125
4103,-3.906250
4104,-1.953125
4105,-5.859375
4106,-3.906250
4107,-5.859375
4108,-1.953125
4109,-3.906250
4110,-5.859375
4111,-3.906250
4112,-5.859375
4113,-3.906250
4114,-3.906250
4115,-3.906250
4116,-1.953125
4117,-3.906250
4118,-3.906250
4119,-3.906250
4120,-7.812500
4121,-3.906250
4122,-5.859375
4123,-3.906250
4124,-5.859375
4125,-1.953125
4126,-3.906250
4127,-5.859375
4128,3.906250
4129,-7.812500
4130,-5.859375
4131,-5.859375
4132,-3.906250
4133,-3.906250
4134,-3.906250
4135,-1.953125
4136,-7.812500
4137,-3.906250
4138,-5.859375
4139,-3.906250
4140,-5.859375
4141,-5.859375
4142,-1.953125
4143,-7.812500
4144,-3.906250
4145,-5.859375
4146,-5.859375
4147,-3.906250
4148,-3.906250
4149,-3.906250
4150,-7.812500
4151,-5.859375
4152,-9.765625
4153,-7.812500
4154,-3.906250
4155,-5.859375
4156,-5.859375
4157,-9.765625
4158,-7.812500
4159,-7.812500
4160,-7.812500
4161,-3.906250
4162,-7.812500
4163,-5.859375
4164,-7.812500
4165,-5.859375
4166,-7.812500
4167,-3.906250
4168,-3.906250
4169,-7.812500
4170,-5.859375
4171,-9.765625
4172,-5.859375
4173,-3.906250
4174,-9.765625
4175,-3.906250
4176,-7.812500
4177,-3.906250
4178,-5.859375
4179,-5.859375
4180,-3.906250
4181,-5.859375
4182,-3.906250
4183,-7.812500
4184,-7.812500
4185,-5.859375
4186,-3.906250
4187,-3.906250
4188,-9.765625
4189,-3.906250
4190,-7.812500
4191,-3.906250
4192,-9.765625
4193,-3.906250
4194,-7.812500
4195,-5.859375
4196,-3.906250
4197,-9.765625
4198,-1.953125
4199,-5.859375
4200,-1.953125
4201,-7.812500
4202,-5.859375
4203,-1.953125
4204,-9.765625
4205,-3.906250
4206,-9.765625
4207,-3.906250
4208,-7.812500
4209,-9.765625
4210,-3.906250
4211,-9.765625
4212,-3.906250
4213,-9.765625
4214,-3.906250
4215,-5.859375
4216,-7.812500
4217,-7.812500
4218,-9.765625
4219,-9.765625
4220,-7.812500
4221,-9.765625
4222,-7.812500
4223,-9.765625
4224,-7.812500
4225,-9.765625
4226,-9.765625
4227,-7.812500
4228,-9.765625
4229,-7.812500
4230,-7.812500
4231,-1.953125
4232,-7.812500
4233,-9.765625
4234,-7.812500
4235,-9.765625
4236,-7.812500
4237,-7.812500
4238,-5.859375
4239,-5.859375
4240,-5.859375
4241,-7.812500
4242,-7.812500
4243,-7.812500
4244,-7.812500
4245,-7.812500
4246,-7.812500
4247,-9.765625
4248,-5.859375
4249,-7.812500
4250,-7.812500
4251,-3.906250
4252,-9.765625
4253,-5.859375
4254,-9.765625
4255,-7.812500
4256,-7.812500
4257,-5.859375
4258,-7.812500
4259,-9.765625
4260,-9.765625
4261,-9.765625
4262,-7.812500
4263,-9.765625
4264,-9.765625
4265,-7.812500
4266,-13.671875
4267,-9.765625
4268,-9.765625
4269,-9.765625
4270,-9.765625
4271,-9.765625
4272,-9.765625
4273,-15.625000
4274,-9.765625
4275,-9.765625
4276,-9.765625
4277,-3.906250
4278,-9.765625
4279,-9.765625
4280,-9.765625
4281,-9.765625
4282,-9.765625
4283,-9.765625
4284,-9.765625
4285,-9.765625
4286,-9.765625
4287,-9.765625
4288,-9.765625
4289,-9.765625
4290,-9.765625
4291,-9.765625
4292,-11.718750
4293,-9.765625
4294,-9.765625
4295,-9.765625
4296,-9.765625
4297,-9.765625
4298,-9.765625
4299,-9.765625
4300,-9.765625
4301,-9.765625
4302,-9.765625
4303,-11.718750
4304,-9.765625
4305,-11.718750
4306,-9.765625
4307,-9.765625
4308,-9.765625
4309,-7.812500
4310,-9.765625
4311,-9.765625
4312,-9.765625
4313,-13.671875
4314,-9.765625
4315,-9.765625
4316,-9.765625
4317,-9.765625
4318,-9.765625
4319,-5.859375
4320,-9.765625
4321,-9.765625
4322,-9.765625
4323,-9.765625
4324,-9.765625
4325,-11.718750
4326,-9.765625
4327,-7.812500
4328,-9.765625
4329,-7.812500
4330,-9.765625
4331,-5.859375
4332,-9.765625
4333,-9.765625
4334,-9.765625
4335,-9.765625
4336,-7.812500
4337,-11.718750
4338,-9.765625
4339,-9.765625
4340,-9.765625
4341,-9.765625
4342,-9.765625
4343,-7.812500
4344,-9.765625
4345,-7.812500
4346,-9.765625
4347,-9.765625
4348,-3.906250
4349,-9.765625
4350,-7.812500
4351,-9.765625
4352,-5.859375
4353,-5.859375
4354,-7.812500
4355,-7.812500
4356,-5.859375
4357,-7.812500
4358,-9.765625
4359,-9.765625
4360,-7.812500
4361,-9.765625
4362,-7.812500
4363,-5.859375
4364,-17.578125
4365,-7.812500
4366,-7.812500
4367,-5.859375
4368,-5.859375
4369,-3.906250
4370,-7.812500
4371,-5.859375
4372,-5.859375
4373,-3.906250
4374,-1.953125
4375,-5.859375
4376,-1.953125
4377,-5.859375
4378,-3.906250
4379,-1.953125
4380,-1.953125
4381,0.000000
4382,-1.953125
4383,1.953125
4384,-1.953125
4385,0.000000
4386,-1.953125
4387,-1.953125
4388,1.953125
4389,-1.953125
4390,-3.906250
4391,-1.953125
4392,0.000000
4393,1.953125
4394,0.000000
4395,1.953125
4396,1.953125
4397,1.953125
4398,1.953125
4399,1.953125
4400,1.953125
4401,0.000000
4402,1.953125
4403,1.953125
4404,3.906250
4405,1.953125
4406,5.859375
4407,5.859375
4408,1.953125
4409,3.906250
4410,1.953125
4411,5.859375
4412,5.859375
4413,1.953125
4414,5.859375
4415,1.953125
4416,5.859375
4417,5.859375
4418,5.859375
4419,5.859375
4420,5.859375
4421,5.859375
4422,13.671875
4423,5.859375
4424,5.859375
4425,3.906250
4426,5.859375
4427,5.859375
4428,1.953125
4429,5.859375
4430,3.906250
4431,7.812500
4432,5.859375
4433,5.859375
4434,5.859375
4435,5.859375
4436,7.812500
4437,5.859375
4438,5.859375
4439,5.859375
4440,5.859375
4441,5.859375
4442,5.859375
4443,5.859375
4444,5.859375
4445,5.859375
4446,5.859375
4447,5.859375
4448,5.859375
4449,5.859375
4450,5.859375
4451,5.859375
4452,7.812500
4453,5.859375
4454,7.812500
4455,7.812500
4456,5.859375
4457,5.859375
4458,1.953125
4459,5.859375
4460,1.953125
4461,5.859375
4462,3.906250
4463,5.859375
4464,5.859375
4465,1.953125
4466,1.953125
4467,5.859375
4468,1.953125
4469,7.812500
4470,1.953125
4471,5.859375
4472,1.953125
4473,1.953125
4474,5.859375
4475,1.953125
4476,7.812500
4477,5.859375
4478,5.859375
4479,5.859375
4480,1.953125
4481,5.859375
4482,1.953125
4483,5.859375
4484,5.859375
4485,5.859375
4486,5.859375
4487,5.859375
4488,5.859375
4489,5.859375
4490,5.859375
4491,5.859375
4492,5.859375
4493,3.906250
4494,5.859375
4495,5.859375
4496,5.859375
4497,5.859375
4498,5.859375
4499,3.906250
4500,7.812500
4501,5.859375
4502,9.765625
4503,5.859375
4504,5.859375
4505,5.859375
4506,5.859375
4507,5.859375
4508,5.859375
4509,9.765625
4510,5.859375
4511,5.859375
4512,5.859375
4513,5.859375
4514,7.812500
4515,7.812500
4516,5.859375
4517,7.812500
4518,5.859375
4519,5.859375
4520,5.859375
4521,5.859375
4522,7.812500
4523,5.859375
4524,7.812500
4525,5.859375
4526,7.812500
4527,7.812500
4528,5.859375
4529,9.765625
4530,13.671875
4531,7.812500
4532,9.765625
4533,5.859375
4534,15.625000
4535,5.859375
4536,7.812500
4537,5.859375
4538,5.859375
4539,7.812500
4540,5.859375
4541,9.765625
4542,5.859375
4543,7.812500
4544,1.953125
4545,5.859375
4546,7.812500
4547,5.859375
4548,7.812500
4549,5.859375
4550,7.812500
4551,7.812500
4552,7.812500
4553,7.812500
4554,5.859375
4555,5.859375
4556,5.859375
4557,11.718750
4558,7.812500
4559,5.859375
4560,7.812500
4561,5.859375
4562,9.765625
4563,5.859375
4564,7.812500
4565,7.812500
4566,7.812500
4567,9.765625
4568,5.859375
4569,9.765625
4570,5.859375
4571,1.953125
4572,7.812500
4573,5.859375
4574,9.765625
4575,7.812500
4576,7.812500
4577,7.812500
4578,5.859375
4579,9.765625
4580,7.812500
4581,9.765625
4582,7.812500
4583,9.765625
4584,9.765625
4585,7.812500
4586,13.671875
4587,7.812500
4588,9.765625
4589,7.812500
4590,9.765625
4591,7.812500
4592,7.812500
4593,9.765625
4594,7.812500
4595,17.578125
4596,5.859375
4597,7.812500
4598,13.671875
4599,5.859375
4600,27.343750
4601,5.859375
4602,7.812500
4603,7.812500
4604,0.000000
4605,7.812500
4606,7.812500
4607,5.859375
4608,5.859375
4609,7.812500
4610,7.812500
4611,7.812500
4612,7.812500
4613,5.859375
4614,5.859375
4615,5.859375
4616,7.812500
4617,5.859375
4618,7.812500
4619,7.812500
4620,5.859375
4621,7.812500
4622,5.859375
4623,9.765625
4624,7.812500
4625,5.859375
4626,9.765625
4627,5.859375
4628,7.812500
4629,-3.906250
4630,7.812500
4631,9.765625
4632,5.859375
4633,9.765625
4634,5.859375
4635,7.812500
4636,7.812500
4637,7.812500
4638,7.812500
4639,5.859375
4640,7.812500
4641,5.859375
4642,7.812500
4643,9.765625
4644,7.812500
4645,7.812500
4646,7.812500
4647,11.718750
4648,5.859375
4649,7.812500
4650,5.859375
4651,7.812500
4652,7.812500
4653,5.859375
4654,13.671875
4655,5.859375
4656,9.765625
4657,5.859375
4658,5.859375
4659,21.484375
4660,7.812500
4661,13.671875
4662,5.859375
4663,7.812500
4664,7.812500
4665,5.859375
4666,5.859375
4667,5.859375
4668,9.765625
4669,5.859375
4670,7.812500
4671,11.718750
4672,5.859375
4673,7.812500
4674,7.812500
4675,7.812500
4676,5.859375
4677,5.859375
4678,7.812500
4679,1.953125
4680,9.765625
4681,5.859375
4682,7.812500
4683,7.812500
4684,5.859375
4685,11.718750
4686,7.812500
4687,9.765625
4688,7.812500
4689,7.812500
4690,5.859375
4691,9.765625
4692,5.859375
4693,5.859375
4694,7.812500
4695,7.812500
4696,9.765625
4697,1.953125
4698,13.671875
4699,5.859375
4700,5.859375
4701,7.812500
4702,7.812500
4703,7.812500
4704,5.859375
4705,7.812500
4706,7.812500
4707,5.859375
4708,5.859375
4709,5.859375
4710,9.765625
4711,5.859375
4712,5.859375
4713,7.812500
4714,5.859375
4715,7.812500
4716,-1.953125
4717,9.765625
4718,9.765625
4719,5.859375
4720,11.718750
4721,5.859375
4722,7.812500
4723,7.812500
4724,7.812500
4725,11.718750
4726,5.859375
4727,13.671875
4728,7.812500
4729,7.812500
4730,11.718750
4731,5.859375
4732,11.718750
4733,5.859375
4734,7.812500
4735,7.812500
4736,7.812500
4737,7.812500
4738,7.812500
4739,7.812500
4740,5.859375
4741,5.859375
4742,1.953125
4743,7.812500
4744,9.765625
4745,13.671875
4746,7.812500
4747,7.812500
4748,7.812500
4749,7.812500
4750,7.812500
4751,9.765625
4752,5.859375
4753,7.812500
4754,5.859375
4755,7.812500
4756,7.812500
4757,7.812500
4758,7.812500
4759,5.859375
4760,5.859375
4761,5.859375
4762,9.765625
4763,7.812500
4764,7.812500
4765,7.812500
4766,5.859375
4767,9.765625
4768,5.859375
4769,7.812500
4770,7.812500
4771,7.812500
4772,5.859375
4773,5.859375
4774,7.812500
4775,7.812500
4776,7.812500
4777,9.765625
4778,7.812500
4779,7.812500
4780,7.812500
4781,7.812500
4782,7.812500
4783,7.812500
4784,7.812500
4785,9.765625
4786,7.812500
4787,5.859375
4788,9.765625
4789,9.765625
4790,5.859375
4791,11.718750
4792,5.859375
4793,9.765625
4794,5.859375
4795,5.859375
4796,9.765625
4797,9.765625
4798,7.812500
4799,0.000000
4800,9.765625
4801,9.765625
4802,9.765625
4803,7.812500
4804,5.859375
4805,9.765625
4806,25.390625
4807,11.718750
4808,9.765625
4809,1.953125
4810,7.812500
4811,7.812500
4812,9.765625
4813,7.812500
4814,5.859375
4815,9.765625
4816,7.812500
4817,13.671875
4818,7.812500
4819,9.765625
4820,9.765625
4821,7.812500
4822,7.812500
4823,5.859375
4824,7.812500
4825,7.812500
4826,5.859375
4827,7.812500
4828,7.812500
4829,7.812500
4830,7.812500
4831,7.812500
4832,1.953125
4833,9.765625
4834,7.812500
4835,9.765625
4836,3.906250
4837,7.812500
4838,7.812500
4839,7.812500
4840,5.859375
4841,11.718750
4842,7.812500
4843,7.812500
4844,9.765625
4845,5.859375
4846,7.812500
4847,5.859375
4848,7.812500
4849,7.812500
4850,5.859375
4851,9.765625
4852,5.859375
4853,7.812500
4854,7.812500
4855,7.812500
4856,7.812500
4857,7.812500
4858,9.765625
4859,7.812500
4860,5.859375
4861,17.578125
4862,5.859375
4863,7.812500
4864,5.859375
4865,5.859375
4866,1.953125
4867,5.859375
4868,1.953125
4869,1.953125
4870,1.953125
4871,1.953125
4872,1.953125
4873,1.953125
4874,0.000000
4875,-1.953125
4876,1.953125
4877,1.953125
4878,-1.953125
4879,0.000000
4880,-3.906250
4881,-3.906250
4882,-1.953125
4883,-7.812500
4884,-5.859375
4885,-7.812500
4886,-5.859375
4887,-9.765625
4888,-9.765625
4889,-9.765625
4890,-9.765625
4891,-9.765625
4892,-13.671875
4893,-9.765625
4894,-13.671875
4895,-17.578125
4896,-13.671875
4897,-17.578125
4898,-15.625000
4899,-17.578125
4900,-15.625000
4901,-19.531250
4902,-17.578125
4903,-19.531250
4904,-19.531250
4905,-19.531250
4906,-21.484375
4907,-17.578125
4908,-21.484375
4909,-19.531250
4910,-19.531250
4911,-19.531250
4912,-19.531250
4913,-21.484375
4914,-19.531250
4915,-21.484375
4916,-19.531250
4917,-19.531250
4918,-21.484375
4919,-19.531250
4920,-23.437500
4921,-19.531250
4922,-19.531250
4923,-19.531250
4924,-19.531250
4925,-21.484375
4926,-17.578125
4927,-21.484375
4928,-19.531250
4929,-21.484375
4930,-23.437500
4931,-21.484375
4932,-25.390625
4933,-21.484375
4934,-25.390625
4935,-25.390625
4936,-23.437500
4937,-31.250000
4938,-29.296875
4939,-33.203125
4940,-31.250000
4941,-33.203125
4942,-17.578125
4943,-35.156250
4944,-35.156250
4945,-35.156250
4946,-39.062500
4947,-37.109375
4948,-44.921875
4949,-37.109375
4950,-41.015625
4951,-39.062500
4952,-41.015625
4953,-41.015625
4954,-39.062500
4955,-41.015625
4956,-41.015625
4957,-44.921875
4958,-41.015625
4959,-41.015625
4960,-42.968750
4961,-41.015625
4962,-41.015625
4963,-41.015625
4964,-42.968750
4965,-39.062500
4966,-41.015625
4967,-41.015625
4968,-41.015625
4969,-41.015625
4970,-41.015625
4971,-41.015625
4972,-41.015625
4973,-37.109375
4974,-41.015625
4975,-41.015625
4976,-39.062500
4977,-44.921875
4978,-35.156250
4979,-39.062500
4980,-39.062500
4981,-37.109375
4982,-39.062500
4983,-39.062500
4984,-37.109375
4985,-37.109375
4986,-39.062500
4987,-39.062500
4988,-39.062500
4989,-37.109375
4990,-35.156250
4991,-37.109375
4992,-39.062500
4993,-37.109375
4994,-35.156250
4995,-35.156250
4996,-37.109375
4997,-35.156250
4998,-37.109375
4999,-35.156250
5000,-35.156250
5001,-35.156250
5002,-31.250000
5003,-35.156250
5004,-31.250000
5005,-35.156250
5006,-33.203125
5007,-33.203125
5008,-31.250000
5009,-33.203125
5010,-33.203125
5011,-29.296875
5012,-33.203125
5013,-31.250000
5014,-33.203125
5015,-29.296875
5016,-31.250000
5017,-33.203125
5018,-29.296875
5019,-33.203125
5020,-29.296875
5021,-33.203125
5022,-31.250000
5023,-31.250000
5024,-31.250000
5025,-25.390625
5026,-31.250000
5027,-31.250000
5028,-31.250000
5029,-31.250000
5030,-29.296875
5031,-33.203125
5032,-31.250000
5033,-31.250000
5034,-29.296875
5035,-29.296875
5036,-29.296875
5037,-29.296875
5038,-31.250000
5039,-33.203125
5040,-31.250000
5041,-37.109375
5042,-31.250000
5043,-33.203125
5044,-33.203125
5045,-33.203125
5046,-33.203125
5047,-31.250000
5048,-33.203125
5049,-31.250000
5050,-33.203125
5051,-33.203125
5052,-35.156250
5053,-33.203125
5054,-33.203125
5055,-33.203125
5056,-33.203125
5057,-33.203125
5058,-33.203125
5059,-33.203125
5060,-33.203125
5061,-33.203125
5062,-35.156250
5063,-33.203125
5064,-33.203125
5065,-33.203125
5066,-33.203125
5067,-33.203125
5068,-39.062500
5069,-31.250000
5070,-33.203125
5071,-33.203125
5072,-33.203125
5073,-33.203125
5074,-33.203125
5075,-33.203125
5076,-33.203125
5077,-31.250000
5078,-31.250000
5079,-31.250000
5080,-29.296875
5081,-29.296875
5082,-29.296875
5083,-29.296875
5084,-29.296875
5085,-29.296875
5086,-31.250000
5087,-29.296875
5088,-29.296875
5089,-29.296875
5090,-23.437500
5091,-25.390625
5092,-23.437500
5093,-25.390625
5094,-25.390625
5095,-25.390625
5096,-25.390625
5097,-25.390625
5098,-23.437500
5099,-23.437500
5100,-25.390625
5101,-21.484375
5102,-23.437500
5103,-21.484375
5104,-19.531250
5105,-21.484375
5106,-21.484375
5107,-21.484375
5108,-19.531250
5109,-17.578125
5110,-19.531250
5111,-21.484375
5112,-19.531250
5113,-17.578125
5114,-31.250000
5115,-17.578125
5116,-19.531250
5117,-17.578125
5118,-17.578125
5119,-19.531250
5120,-13.671875
5121,-15.625000
5122,-21.484375
5123,-19.531250
5124,-17.578125
5125,-15.625000
5126,-13.671875
5127,-13.671875
5128,-15.625000
5129,-15.625000
5130,-13.671875
5131,-15.625000
5132,-15.625000
5133,-17.578125
5134,-15.625000
5135,-15.625000
5136,-15.625000
5137,-13.671875
5138,-48.828125
5139,-17.578125
5140,-17.578125
5141,-15.625000
5142,-17.578125
5143,-17.578125
5144,-17.578125
5145,-19.531250
5146,-17.578125
5147,-21.484375
5148,-19.531250
5149,-17.578125
5150,-23.437500
5151,-19.531250
5152,-21.484375
5153,-19.531250
5154,-19.531250
5155,-37.109375
5156,-21.484375
5157,-23.437500
5158,-21.484375
5159,-25.390625
5160,-23.437500
5161,-25.390625
5162,-25.390625
5163,-21.484375
5164,-25.390625
5165,-23.437500
5166,-25.390625
5167,-25.390625
5168,-25.390625
5169,-25.390625
5170,-23.437500
5171,-29.296875
5172,-29.296875
5173,-29.296875
5174,-25.390625
5175,-25.390625
5176,-31.250000
5177,-23.437500
5178,-29.296875
5179,-23.437500
5180,-23.437500
5181,-25.390625
5182,-23.437500
5183,-27.343750
5184,-23.437500
5185,-29.296875
5186,-25.390625
5187,-29.296875
5188,-25.390625
5189,-25.390625
5190,-31.250000
5191,-25.390625
5192,-29.296875
5193,-25.390625
5194,-29.296875
5195,-29.296875
5196,-29.296875
5197,-31.250000
5198,-29.296875
5199,-31.250000
5200,-29.296875
5201,-31.250000
5202,-29.296875
5203,-31.250000
5204,-31.250000
5205,-29.296875
5206,-35.156250
5207,-21.484375
5208,-31.250000
5209,-29.296875
5210,-33.203125
5211,-33.203125
5212,-33.203125
5213,-41.015625
5214,-31.250000
5215,-33.203125
5216,-31.250000
5217,-33.203125
5218,-33.203125
5219,-31.250000
5220,-33.203125
5221,-33.203125
5222,-31.250000
5223,-33.203125
5224,-31.250000
5225,-33.203125
5226,-33.203125
5227,-33.203125
5228,-31.250000
5229,-31.250000
5230,-29.296875
5231,-31.250000
5232,-31.250000
5233,-31.250000
5234,-29.296875
5235,-29.296875
5236,-29.296875
5237,-29.296875
5238,-29.296875
5239,-29.296875
5240,-29.296875
5241,-31.250000
5242,-29.296875
5243,-31.250000
5244,-29.296875
5245,-31.250000
5246,-13.671875
5247,-31.250000
5248,-29.296875
5249,-29.296875
5250,-31.250000
5251,-31.250000
5252,-31.250000
5253,-29.296875
5254,-31.250000
5255,-33.203125
5256,-33.203125
5257,-31.250000
5258,-29.296875
5259,-33.203125
5260,-29.296875
5261,-31.250000
5262,-31.250000
5263,-31.250000
5264,-33.203125
5265,-29.296875
5266,-33.203125
5267,-29.296875
5268,-33.203125
5269,-31.250000
5270,-31.250000
5271,-31.250000
5272,-31.250000
5273,-31.250000
5274,-31.250000
5275,-31.250000
5276,-31.250000
5277,-31.250000
5278,-29.296875
5279,-29.296875
5280,-31.250000
5281,-29.296875
5282,-29.296875
5283,-31.250000
5284,-29.296875
5285,-31.250000
5286,-29.296875
5287,-29.296875
5288,-29.296875
5289,-29.296875
5290,-31.250000
5291,-29.296875
5292,-33.203125
5293,-29.296875
5294,-29.296875
5295,-29.296875
5296,-31.250000
5297,-29.296875
5298,-29.296875
5299,-29.296875
5300,-29.296875
5301,-29.296875
5302,-31.250000
5303,-29.296875
5304,-33.203125
5305,-29.296875
5306,-33.203125
5307,-31.250000
5308,-33.203125
5309,-29.296875
5310,-29.296875
5311,-33.203125
5312,-29.296875
5313,-33.203125
5314,-33.203125
5315,-33.203125
5316,-33.203125
5317,-33.203125
5318,-35.156250
5319,-31.250000
5320,-33.203125
5321,-29.296875
5322,-33.203125
5323,-33.203125
5324,-31.250000
5325,-33.203125
5326,-31.250000
5327,-33.203125
5328,-33.203125
5329,-33.203125
5330,-33.203125
5331,-29.296875
5332,-35.156250
5333,-41.015625
5334,-35.156250
5335,-35.156250
5336,-33.203125
5337,-37.109375
5338,-33.203125
5339,-35.156250
5340,-33.203125
5341,-35.156250
5342,-35.156250
5343,-33.203125
5344,-37.109375
5345,-31.250000
5346,-37.109375
5347,-33.203125
5348,-33.203125
5349,-35.156250
5350,-33.203125
5351,-35.156250
5352,-33.203125
5353,-35.156250
5354,-33.203125
5355,-33.203125
5356,-35.156250
5357,-33.203125
5358,-35.156250
5359,-33.203125
5360,-33.203125
5361,-33.203125
5362,-23.437500
5363,-35.156250
5364,-33.203125
5365,-35.156250
5366,-33.203125
5367,-35.156250
5368,-33.203125
5369,-48.828125
5370,-35.156250
5371,-33.203125
5372,-35.156250
5373,-33.203125
5374,-33.203125
5375,-33.203125
5376,-33.203125
5377,-33.203125
5378,-29.296875
5379,-33.203125
5380,-29.296875
5381,-29.296875
5382,-29.296875
5383,-27.343750
5384,-29.296875
5385,-25.390625
5386,-27.343750
5387,-25.390625
5388,-21.484375
5389,-25.390625
5390,-23.437500
5391,-25.390625
5392,-23.437500
5393,-25.390625
5394,-25.390625
5395,-21.484375
5396,-21.484375
5397,-19.531250
5398,-25.390625
5399,-19.531250
5400,-21.484375
5401,-21.484375
5402,-19.531250
5403,-23.437500
5404,-21.484375
5405,-23.437500
5406,-21.484375
5407,-21.484375
5408,-23.437500
5409,-21.484375
5410,-23.437500
5411,-21.484375
5412,-25.390625
5413,-19.531250
5414,-21.484375
5415,-23.437500
5416,-21.484375
5417,-23.437500
5418,-21.484375
5419,-21.484375
5420,-31.250000
5421,-21.484375
5422,-23.437500
5423,-21.484375
5424,-23.437500
5425,-23.437500
5426,-23.437500
5427,-21.484375
5428,-21.484375
5429,-23.437500
5430,-21.484375
5431,-23.437500
5432,-23.437500
5433,-21.484375
5434,-23.437500
5435,-21.484375
5436,-23.437500
5437,-23.437500
5438,-23.437500
5439,-19.531250
5440,-21.484375
5441,-23.437500
5442,-23.437500
5443,-19.531250
5444,-23.437500
5445,-21.484375
5446,-23.437500
5447,-21.484375
5448,-21.484375
5449,-21.484375
5450,-19.531250
5451,-23.437500
5452,-19.531250
5453,-21.484375
5454,-23.437500
5455,-21.484375
5456,-25.390625
5457,-19.531250
5458,-25.390625
5459,-21.484375
5460,-23.437500
5461,-21.484375
5462,-23.437500
5463,-23.437500
5464,-19.531250
5465,-25.390625
5466,-21.484375
5467,-21.484375
5468,-19.531250
5469,-21.484375
5470,-23.437500
5471,-23.437500
5472,-19.531250
5473,-23.437500
5474,-23.437500
5475,-25.390625
5476,-21.484375
5477,-23.437500
5478,-13.671875
5479,-21.484375
5480,-21.484375
5481,-19.531250
5482,-23.437500
5483,-21.484375
5484,-21.484375
5485,-21.484375
5486,-23.437500
5487,-21.484375
5488,-23.437500
5489,-25.390625
5490,-19.531250
5491,-23.437500
5492,-23.437500
5493,-21.484375
5494,-23.437500
5495,-19.531250
5496,-23.437500
5497,-23.437500
5498,-23.437500
5499,-21.484375
5500,-19.531250
5501,-25.390625
5502,-21.484375
5503,-21.484375
5504,-19.531250
5505,-19.531250
5506,-23.437500
5507,-19.531250
5508,-23.437500
5509,-19.531250
5510,-21.484375
5511,-23.437500
5512,-23.437500
5513,-23.437500
5514,-19.531250
5515,-23.437500
5516,-21.484375
5517,-23.437500
5518,-21.484375
5519,-21.484375
5520,-25.390625
5521,-19.531250
5522,-23.437500
5523,-21.484375
5524,-21.484375
5525,-23.437500
5526,-21.484375
5527,-23.437500
5528,-17.578125
5529,-21.484375
5530,-21.484375
5531,-19.531250
5532,-21.484375
5533,-21.484375
5534,-23.437500
5535,-21.484375
5536,-31.250000
5537,-21.484375
5538,-23.437500
5539,-21.484375
5540,-19.531250
5541,-19.531250
5542,-21.484375
5543,-21.484375
5544,-21.484375
5545,-19.531250
5546,-21.484375
5547,-17.578125
5548,-21.484375
5549,-17.578125
5550,-19.531250
5551,-21.484375
5552,-21.484375
5553,-23.437500
5554,-27.343750
5555,-21.484375
5556,-19.531250
5557,-19.531250
5558,-21.484375
5559,-19.531250
5560,-21.484375
5561,-21.484375
5562,-21.484375
5563,-19.531250
5564,-21.484375
5565,-19.531250
5566,-19.531250
5567,-21.484375
5568,-21.484375
5569,-21.484375
5570,-21.484375
5571,-19.531250
5572,-21.484375
5573,-21.484375
5574,-19.531250
5575,-19.531250
5576,-19.531250
5577,-21.484375
5578,-23.437500
5579,-19.531250
5580,-19.531250
5581,-19.531250
5582,-21.484375
5583,-19.531250
5584,-19.531250
5585,-17.578125
5586,-17.578125
5587,-19.531250
5588,-19.531250
5589,-19.531250
5590,-19.531250
5591,-17.578125
5592,-19.531250
5593,-17.578125
5594,-19.531250
5595,-19.531250
5596,-21.484375
5597,-19.531250
5598,-21.484375
5599,-17.578125
5600,-21.484375
5601,-19.531250
5602,-19.531250
5603,-19.531250
5604,-19.531250
5605,-21.484375
5606,-17.578125
5607,-21.484375
5608,-15.625000
5609,-19.531250
5610,-19.531250
5611,-17.578125
5612,-19.531250
5613,-17.578125
5614,-19.531250
5615,-15.625000
5616,-19.531250
5617,-17.578125
5618,-17.578125
5619,-17.578125
5620,-19.531250
5621,-15.625000
5622,-17.578125
5623,-17.578125
5624,-17.578125
5625,-15.625000
5626,-17.578125
5627,-17.578125
5628,-15.625000
5629,-13.671875
5630,-15.625000
5631,-17.578125
5632,-13.671875
5633,-17.578125
5634,-13.671875
5635,-15.625000
5636,-15.625000
5637,-15.625000
5638,-13.671875
5639,-15.625000
5640,-13.671875
5641,-19.531250
5642,-17.578125
5643,-15.625000
5644,-13.671875
5645,-13.671875
5646,-13.671875
5647,-13.671875
5648,-13.671875
5649,-15.625000
5650,-15.625000
5651,-15.625000
5652,-13.671875
5653,-15.625000
5654,-15.625000
5655,-15.625000
5656,-17.578125
5657,-15.625000
5658,-15.625000
5659,-13.671875
5660,-13.671875
5661,-13.671875
5662,-13.671875
5663,-15.625000
5664,-15.625000
5665,-15.625000
5666,-15.625000
5667,-17.578125
5668,-15.625000
5669,-13.671875
5670,-15.625000
5671,-15.625000
5672,-15.625000
5673,-15.625000
5674,-13.671875
5675,-15.625000
5676,-17.578125
5677,-13.671875
5678,-15.625000
5679,-17.578125
5680,-13.671875
5681,-15.625000
5682,-15.625000
5683,-19.531250
5684,-15.625000
5685,-29.296875
5686,-17.578125
5687,-15.625000
5688,-17.578125
5689,-11.718750
5690,-17.578125
5691,-15.625000
5692,-17.578125
5693,-15.625000
5694,-15.625000
5695,-15.625000
5696,-15.625000
5697,-17.578125
5698,-17.578125
5699,-15.625000
5700,-15.625000
5701,-17.578125
5702,-15.625000
5703,-15.625000
5704,-15.625000
5705,-13.671875
5706,-15.625000
5707,-15.625000
5708,-15.625000
5709,-15.625000
5710,-15.625000
5711,-17.578125
5712,-13.671875
5713,-17.578125
5714,-15.625000
5715,-15.625000
5716,-17.578125
5717,-15.625000
5718,-13.671875
5719,-15.625000
5720,-13.671875
5721,-17.578125
5722,-15.625000
5723,-17.578125
5724,-17.578125
5725,-13.671875
5726,-15.625000
5727,-11.718750
5728,-15.625000
5729,-15.625000
5730,-13.671875
5731,-15.625000
5732,-13.671875
5733,-17.578125
5734,-13.671875
5735,-15.625000
5736,-15.625000
5737,-13.671875
5738,-17.578125
5739,-13.671875
5740,-17.578125
5741,-15.625000
5742,-15.625000
5743,-17.578125
5744,-15.625000
5745,-17.578125
5746,-13.671875
5747,-17.578125
5748,-17.578125
5749,-17.578125
5750,-15.625000
5751,-15.625000
5752,-15.625000
5753,-13.671875
5754,-17.578125
5755,-15.625000
5756,-17.578125
5757,-9.765625
5758,-15.625000
5759,-17.578125
5760,-15.625000
5761,-19.531250
5762,-17.578125
5763,-17.578125
5764,-17.578125
5765,-15.625000
5766,-19.531250
5767,-17.578125
5768,-19.531250
5769,-19.531250
5770,-15.625000
5771,-19.531250
5772,-17.578125
5773,-19.531250
5774,-13.671875
5775,-17.578125
5776,-19.531250
5777,-17.578125
5778,-19.531250
5779,-17.578125
5780,-19.531250
5781,-19.531250
5782,-19.531250
5783,-19.531250
5784,-17.578125
5785,-21.484375
5786,-17.578125
5787,-21.484375
5788,-19.531250
5789,-17.578125
5790,-21.484375
5791,-17.578125
5792,-17.578125
5793,-21.484375
5794,-21.484375
5795,-23.437500
5796,-19.531250
5797,-21.484375
5798,-19.531250
5799,-21.484375
5800,-21.484375
5801,-23.437500
5802,-21.484375
5803,-21.484375
5804,-23.437500
5805,-21.484375
5806,-25.390625
5807,-19.531250
5808,-19.531250
5809,-21.484375
5810,-19.531250
5811,-19.531250
5812,-19.531250
5813,-21.484375
5814,-17.578125
5815,-19.531250
5816,-17.578125
5817,-17.578125
5818,-21.484375
5819,-17.578125
5820,-19.531250
5821,-17.578125
5822,-19.531250
5823,-19.531250
5824,-17.578125
5825,-17.578125
5826,-17.578125
5827,-17.578125
5828,-19.531250
5829,-17.578125
5830,-17.578125
5831,-17.578125
5832,-19.531250
5833,-19.531250
5834,-13.671875
5835,-21.484375
5836,-17.578125
5837,-17.578125
5838,-17.578125
5839,-19.531250
5840,-17.578125
5841,-15.625000
5842,-17.578125
5843,-15.625000
5844,-17.578125
5845,-15.625000
5846,-15.625000
5847,-17.578125
5848,-13.671875
5849,-17.578125
5850,-17.578125
5851,-13.671875
5852,-17.578125
5853,-15.625000
5854,-15.625000
5855,-17.578125
5856,-13.671875
5857,-17.578125
5858,-15.625000
5859,-9.765625
5860,-13.671875
5861,-15.625000
5862,-9.765625
5863,-15.625000
5864,-13.671875
5865,-13.671875
5866,-19.531250
5867,-13.671875
5868,-13.671875
5869,-11.718750
5870,-9.765625
5871,-9.765625
5872,-9.765625
5873,-9.765625
5874,-9.765625
5875,-11.718750
5876,-9.765625
5877,-3.906250
5878,-7.812500
5879,-5.859375
5880,-9.765625
5881,-3.906250
5882,-5.859375
5883,-3.906250
5884,-5.859375
5885,-7.812500
5886,-3.906250
5887,-5.859375
5888,-1.953125
5889,-5.859375
5890,-11.718750
5891,-5.859375
5892,-5.859375
5893,-3.906250
5894,-5.859375
5895,-5.859375
5896,5.859375
5897,-7.812500
5898,-1.953125
5899,-9.765625
5900,-3.906250
5901,-7.812500
5902,-1.953125
5903,-7.812500
5904,-7.812500
5905,-7.812500
5906,-7.812500
5907,-5.859375
5908,-9.765625
5909,-7.812500
5910,-7.812500
5911,-7.812500
5912,-7.812500
5913,-5.859375
5914,-7.812500
5915,-7.812500
5916,-5.859375
5917,-7.812500
5918,-9.765625
5919,-7.812500
5920,-7.812500
5921,-5.859375
5922,-5.859375
5923,-7.812500
5924,-5.859375
5925,-7.812500
5926,-7.812500
5927,-9.765625
5928,-7.812500
5929,-7.812500
5930,-9.765625
5931,-9.765625
5932,-13.671875
5933,-9.765625
5934,-9.765625
5935,-9.765625
5936,-9.765625
5937,-9.765625
5938,-9.765625
5939,-13.671875
5940,-15.625000
5941,-13.671875
5942,-15.625000
5943,-17.578125
5944,-15.625000
5945,-17.578125
5946,-15.625000
5947,-17.578125
5948,-17.578125
5949,-19.531250
5950,-23.437500
5951,-17.578125
5952,-23.437500
5953,-17.578125
5954,-23.437500
5955,-19.531250
5956,-19.531250
5957,-23.437500
5958,-19.531250
5959,-23.437500
5960,-19.531250
5961,-25.390625
5962,-21.484375
5963,-17.578125
5964,-21.484375
5965,-17.578125
5966,-23.437500
5967,-23.437500
5968,-21.484375
5969,-23.437500
5970,-19.531250
5971,-21.484375
5972,-21.484375
5973,-21.484375
5974,-19.531250
5975,-19.531250
5976,-25.390625
5977,-21.484375
5978,-21.484375
5979,-19.531250
5980,-17.578125
5981,-21.484375
5982,-21.484375
5983,-21.484375
5984,-19.531250
5985,-19.531250
5986,-21.484375
5987,-19.531250
5988,-21.484375
5989,-19.531250
5990,-19.531250
5991,-21.484375
5992,-19.531250
5993,-19.531250
5994,-21.484375
5995,-21.484375
5996,-19.531250
5997,-19.531250
5998,-21.484375
5999,-19.531250
6000,-23.437500
6001,-23.437500
6002,-23.437500
6003,-21.484375
6004,-23.437500
6005,-21.484375
6006,-23.437500
6007,-25.390625
6008,-25.390625
6009,-25.390625
6010,-25.390625
6011,-23.437500
6012,-29.296875
6013,-25.390625
6014,-25.390625
6015,-25.390625
6016,-29.296875
6017,-25.390625
6018,-29.296875
6019,-25.390625
6020,-25.390625
6021,-29.296875
6022,-27.343750
6023,-27.343750
6024,-25.390625
6025,-25.390625
6026,-29.296875
6027,-29.296875
6028,-29.296875
6029,-29.296875
6030,-25.390625
6031,-29.296875
6032,-25.390625
6033,-27.343750
6034,-25.390625
6035,-29.296875
6036,-25.390625
6037,-29.296875
6038,-29.296875
6039,-27.343750
6040,-25.390625
6041,-29.296875
6042,-29.296875
6043,-31.250000
6044,-25.390625
6045,-29.296875
6046,-29.296875
6047,-29.296875
6048,-29.296875
6049,-29.296875
6050,-29.296875
6051,-25.390625
6052,-29.296875
6053,-29.296875
6054,-25.390625
6055,-29.296875
6056,-25.390625
6057,-29.296875
6058,-21.484375
6059,-29.296875
6060,-29.296875
6061,-25.390625
6062,-29.296875
6063,-25.390625
6064,-29.296875
6065,-27.343750
6066,-29.296875
6067,-29.296875
6068,-25.390625
6069,-29.296875
6070,-25.390625
6071,-29.296875
6072,-25.390625
6073,-25.390625
6074,-27.343750
6075,-25.390625
6076,-29.296875
6077,-31.250000
6078,-29.296875
6079,-29.296875
6080,-25.390625
6081,-29.296875
6082,-25.390625
6083,-29.296875
6084,-25.390625
6085,-25.390625
6086,-29.296875
6087,-29.296875
6088,-29.296875
6089,-25.390625
6090,-29.296875
6091,-23.437500
6092,-27.343750
6093,-27.343750
6094,-25.390625
6095,-31.250000
6096,-23.437500
6097,-25.390625
6098,-25.390625
6099,-25.390625
6100,-27.343750
6101,-25.390625
6102,-29.296875
6103,-23.437500
6104,-29.296875
6105,-25.390625
6106,-29.296875
6107,-29.296875
6108,-25.390625
6109,-31.250000
6110,-29.296875
6111,-31.250000
6112,-29.296875
6113,-31.250000
6114,-29.296875
6115,-29.296875
6116,-33.203125
6117,-27.343750
6118,-31.250000
6119,-29.296875
6120,-31.250000
6121,-31.250000
6122,-29.296875
6123,-31.250000
6124,-31.250000
6125,-33.203125
6126,-29.296875
6127,-29.296875
6128,-33.203125
6129,-29.296875
6130,-31.250000
6131,-29.296875
6132,-29.296875
6133,-33.203125
6134,-25.390625
6135,-31.250000
6136,-29.296875
6137,-29.296875
6138,-29.296875
6139,-27.343750
6140,-29.296875
6141,-29.296875
6142,-33.203125
6143,-29.296875
6144,-29.296875
6145,-29.296875
6146,-25.390625
6147,-29.296875
6148,-25.390625
6149,-27.343750
6150,-35.156250
6151,-25.390625
6152,-27.343750
6153,-25.390625
6154,-25.390625
6155,-23.437500
6156,-25.390625
6157,-29.296875
6158,-23.437500
6159,-25.390625
6160,-21.484375
6161,-23.437500
6162,-19.531250
6163,-23.437500
6164,-21.484375
6165,-21.484375
6166,-23.437500
6167,-19.531250
6168,-21.484375
6169,-21.484375
6170,-19.531250
6171,-19.531250
6172,-19.531250
6173,-21.484375
6174,-17.578125
6175,-21.484375
6176,-17.578125
6177,-19.531250
6178,-29.296875
6179,-19.531250
6180,-23.437500
6181,-19.531250
6182,-21.484375
6183,-19.531250
6184,-19.531250
6185,-19.531250
6186,-21.484375
6187,-19.531250
6188,-19.531250
6189,-21.484375
6190,-19.531250
6191,-19.531250
6192,-19.531250
6193,-23.437500
6194,-21.484375
6195,-19.531250
6196,-21.484375
6197,-19.531250
6198,-23.437500
6199,-21.484375
6200,-23.437500
6201,-21.484375
6202,-21.484375
6203,-23.437500
6204,-21.484375
6205,-25.390625
6206,-21.484375
6207,-23.437500
6208,-23.437500
6209,-19.531250
6210,-23.437500
6211,-21.484375
6212,-25.390625
6213,-23.437500
6214,-21.484375
6215,-25.390625
6216,-23.437500
6217,-19.531250
6218,-25.390625
6219,-21.484375
6220,-23.437500
6221,-21.484375
6222,-21.484375
6223,-21.484375
6224,-19.531250
6225,-23.437500
6226,-19.531250
6227,-21.484375
6228,-21.484375
6229,-19.531250
6230,-23.437500
6231,-17.578125
6232,-19.531250
6233,-19.531250
6234,-21.484375
6235,-21.484375
6236,-17.578125
6237,-21.484375
6238,-19.531250
6239,-21.484375
6240,-19.531250
6241,-19.531250
6242,-23.437500
6243,-19.531250
6244,-31.250000
6245,-17.578125
6246,-21.484375
6247,-23.437500
6248,-21.484375
6249,-23.437500
6250,-23.437500
6251,-23.437500
6252,-23.437500
6253,-23.437500
6254,-23.437500
6255,-23.437500
6256,-21.484375
6257,-23.437500
6258,-25.390625
6259,-21.484375
6260,-23.437500
6261,-23.437500
6262,-23.437500
6263,-25.390625
6264,-23.437500
6265,-23.437500
6266,-23.437500
6267,-21.484375
6268,-25.390625
6269,-25.390625
6270,-23.437500
6271,-23.437500
6272,-21.484375
6273,-23.437500
6274,-21.484375
6275,-23.437500
6276,-25.390625
6277,-33.203125
6278,-25.390625
6279,-21.484375
6280,-23.437500
6281,-23.437500
6282,-23.437500
6283,-23.437500
6284,-21.484375
6285,-23.437500
6286,-21.484375
6287,-23.437500
6288,-23.437500
6289,-25.390625
6290,-23.437500
6291,-23.437500
6292,-25.390625
6293,-23.437500
6294,-25.390625
6295,-23.437500
6296,-25.390625
6297,-25.390625
6298,-19.531250
6299,-25.390625
6300,-23.437500
6301,-25.390625
6302,-25.390625
6303,-29.296875
6304,-25.390625
6305,-25.390625
6306,-25.390625
6307,-25.390625
6308,-25.390625
6309,-27.343750
6310,-25.390625
6311,-29.296875
6312,-25.390625
6313,-29.296875
6314,-25.390625
6315,-27.343750
6316,-25.390625
6317,-25.390625
6318,-29.296875
6319,-29.296875
6320,-27.343750
6321,-29.296875
6322,-25.390625
6323,-29.296875
6324,-25.390625
6325,-29.296875
6326,-29.296875
6327,-23.437500
6328,-29.296875
6329,-27.343750
6330,-29.296875
6331,-25.390625
6332,-25.390625
6333,-29.296875
6334,-25.390625
6335,-13.671875
6336,-25.390625
6337,-25.390625
6338,-29.296875
6339,-25.390625
6340,-31.250000
6341,-27.343750
6342,-25.390625
6343,-29.296875
6344,-27.343750
6345,-29.296875
6346,-25.390625
6347,-29.296875
6348,-25.390625
6349,-29.296875
6350,-29.296875
6351,-27.343750
6352,-31.250000
6353,-25.390625
6354,-29.296875
6355,-29.296875
6356,-29.296875
6357,-29.296875
6358,-29.296875
6359,-29.296875
6360,-31.250000
6361,-29.296875
6362,-29.296875
6363,-27.343750
6364,-25.390625
6365,-25.390625
6366,-29.296875
6367,-29.296875
6368,-23.437500
6369,-29.296875
6370,-27.343750
6371,-29.296875
6372,-25.390625
6373,-29.296875
6374,-29.296875
6375,-25.390625
6376,-29.296875
6377,-29.296875
6378,-29.296875
6379,-29.296875
6380,-25.390625
6381,-29.296875
6382,-25.390625
6383,-29.296875
6384,-29.296875
6385,-31.250000
6386,-29.296875
6387,-25.390625
6388,-29.296875
6389,-29.296875
6390,-29.296875
6391,-25.390625
6392,-29.296875
6393,-29.296875
6394,-25.390625
6395,-29.296875
6396,-25.390625
6397,-29.296875
6398,-25.390625
6399,-29.296875
6400,-29.296875
6401,-29.296875
6402,-31.250000
6403,-25.390625
6404,-29.296875
6405,-27.343750
6406,-29.296875
6407,-29.296875
6408,-29.296875
6409,-31.250000
6410,-29.296875
6411,-29.296875
6412,-27.343750
6413,-33.203125
6414,-29.296875
6415,-29.296875
6416,-29.296875
6417,-29.296875
6418,-31.250000
6419,-29.296875
6420,-29.296875
6421,-29.296875
6422,-29.296875
6423,-31.250000
6424,-29.296875
6425,-31.250000
6426,-23.437500
6427,-25.390625
6428,-29.296875
6429,-25.390625
6430,-29.296875
6431,-29.296875
6432,-25.390625
6433,-29.296875
6434,-27.343750
6435,-31.250000
6436,-29.296875
6437,-29.296875
6438,-29.296875
6439,-29.296875
6440,-33.203125
6441,-29.296875
6442,-29.296875
6443,-29.296875
6444,-33.203125
6445,-25.390625
6446,-33.203125
6447,-25.390625
6448,-29.296875
6449,-29.296875
6450,-35.156250
6451,-31.250000
6452,-29.296875
6453,-33.203125
6454,-27.343750
6455,-31.250000
6456,-29.296875
6457,-29.296875
6458,-31.250000
6459,-33.203125
6460,-29.296875
6461,-29.296875
6462,-33.203125
6463,-23.437500
6464,-29.296875
6465,-33.203125
6466,-29.296875
6467,-29.296875
6468,-33.203125
6469,-29.296875
6470,-31.250000
6471,-31.250000
6472,-29.296875
6473,-29.296875
6474,-31.250000
6475,-33.203125
6476,-29.296875
6477,-33.203125
6478,-31.250000
6479,-29.296875
6480,-31.250000
6481,-31.250000
6482,-33.203125
6483,-25.390625
6484,-31.250000
6485,-33.203125
6486,-29.296875
6487,-29.296875
6488,-25.390625
6489,-33.203125
6490,-31.250000
6491,-31.250000
6492,-33.203125
6493,-29.296875
6494,-31.250000
6495,-29.296875
6496,-33.203125
6497,-31.250000
6498,-31.250000
6499,-33.203125
6500,-31.250000
6501,-31.250000
6502,-31.250000
6503,-33.203125
6504,-31.250000
6505,-29.296875
6506,-33.203125
6507,-29.296875
6508,-33.203125
6509,-33.203125
6510,-31.250000
6511,-33.203125
6512,-31.250000
6513,-33.203125
6514,-31.250000
6515,-35.156250
6516,-31.250000
6517,-41.015625
6518,-33.203125
6519,-33.203125
6520,-33.203125
6521,-33.203125
6522,-35.156250
6523,-33.203125
6524,-33.203125
6525,-33.203125
6526,-33.203125
6527,-35.156250
6528,-33.203125
6529,-35.156250
6530,-31.250000
6531,-35.156250
6532,-35.156250
6533,-31.250000
6534,-35.156250
6535,-33.203125
6536,-33.203125
6537,-33.203125
6538,-31.250000
6539,-33.203125
6540,-33.203125
6541,-35.156250
6542,-31.250000
6543,-33.203125
6544,-33.203125
6545,-31.250000
6546,-33.203125
6547,-31.250000
6548,-33.203125
6549,-31.250000
6550,-41.015625
6551,-33.203125
6552,-31.250000
6553,-33.203125
6554,-33.203125
6555,-33.203125
6556,-31.250000
6557,-33.203125
6558,-33.203125
6559,-31.250000
6560,-33.203125
6561,-33.203125
6562,-33.203125
6563,-33.203125
6564,-31.250000
6565,-31.250000
6566,-31.250000
6567,-31.250000
6568,-31.250000
6569,-29.296875
6570,-33.203125
6571,-25.390625
6572,-31.250000
6573,-29.296875
6574,-29.296875
6575,-33.203125
6576,-25.390625
6577,-29.296875
6578,-31.250000
6579,-29.296875
6580,-29.296875
6581,-29.296875
6582,-29.296875
6583,-29.296875
6584,-25.390625
6585,-25.390625
6586,-25.390625
6587,-27.343750
6588,-27.343750
6589,-29.296875
6590,-29.296875
6591,-29.296875
6592,-33.203125
6593,-29.296875
6594,-29.296875
6595,-25.390625
6596,-25.390625
6597,-29.296875
6598,-29.296875
6599,-29.296875
6600,-25.390625
6601,-31.250000
6602,-25.390625
6603,-29.296875
6604,-29.296875
6605,-25.390625
6606,-29.296875
6607,-25.390625
6608,-17.578125
6609,-31.250000
6610,-29.296875
6611,-29.296875
6612,-29.296875
6613,-29.296875
6614,-27.343750
6615,-29.296875
6616,-29.296875
6617,-31.250000
6618,-27.343750
6619,-25.390625
6620,-29.296875
6621,-25.390625
6622,-31.250000
6623,-29.296875
6624,-29.296875
6625,-29.296875
6626,-29.296875
6627,-31.250000
6628,-31.250000
6629,-29.296875
6630,-33.203125
6631,-25.390625
6632,-31.250000
6633,-29.296875
6634,-29.296875
6635,-29.296875
6636,-29.296875
6637,-35.156250
6638,-29.296875
6639,-29.296875
6640,-29.296875
6641,-27.343750
6642,-35.156250
6643,-27.343750
6644,-29.296875
6645,-27.343750
6646,-29.296875
6647,-25.390625
6648,-25.390625
6649,-29.296875
6650,-25.390625
6651,-29.296875
6652,-25.390625
6653,-29.296875
6654,-25.390625
6655,-25.390625
6656,-25.390625
6657,-23.437500
6658,-29.296875
6659,-25.390625
6660,-25.390625
6661,-27.343750
6662,-29.296875
6663,-25.390625
6664,-23.437500
6665,-27.343750
6666,-19.531250
6667,-25.390625
6668,-29.296875
6669,-25.390625
6670,-29.296875
6671,-25.390625
6672,-25.390625
6673,-25.390625
6674,-27.343750
6675,-25.390625
6676,-25.390625
6677,-25.390625
6678,-25.390625
6679,-29.296875
6680,-25.390625
6681,-25.390625
6682,-25.390625
6683,-25.390625
6684,-25.390625
6685,-33.203125
6686,-25.390625
6687,-5.859375
6688,-29.296875
6689,-29.296875
6690,-31.250000
6691,-27.343750
6692,-29.296875
6693,-31.250000
6694,-29.296875
6695,-29.296875
6696,-33.203125
6697,-29.296875
6698,-31.250000
6699,-29.296875
6700,-29.296875
6701,-31.250000
6702,-31.250000
6703,-33.203125
6704,-29.296875
6705,-35.156250
6706,-31.250000
6707,-33.203125
6708,-33.203125
6709,-33.203125
6710,-33.203125
6711,-33.203125
6712,-35.156250
6713,-33.203125
6714,-33.203125
6715,-33.203125
6716,-33.203125
6717,-33.203125
6718,-35.156250
6719,-33.203125
6720,-35.156250
6721,-35.156250
6722,-35.156250
6723,-35.156250
6724,-19.531250
6725,-35.156250
6726,-33.203125
6727,-33.203125
6728,-33.203125
6729,-33.203125
6730,-33.203125
6731,-33.203125
6732,-33.203125
6733,-31.250000
6734,-29.296875
6735,-29.296875
6736,-37.109375
6737,-31.250000
6738,-25.390625
6739,-31.250000
6740,-29.296875
6741,-29.296875
6742,-31.250000
6743,-29.296875
6744,-29.296875
6745,-27.343750
6746,-31.250000
6747,-31.250000
6748,-29.296875
6749,-31.250000
6750,-25.390625
6751,-33.203125
6752,-31.250000
6753,-31.250000
6754,-31.250000
6755,-31.250000
6756,-31.250000
6757,-29.296875
6758,-35.156250
6759,-29.296875
6760,-33.203125
6761,-33.203125
6762,-33.203125
6763,-29.296875
6764,-29.296875
6765,-33.203125
6766,-25.390625
6767,-29.296875
6768,-33.203125
6769,-25.390625
6770,-33.203125
6771,-29.296875
6772,-29.296875
6773,-25.390625
6774,-31.250000
6775,-31.250000
6776,-29.296875
6777,-25.390625
6778,-21.484375
6779,-29.296875
6780,-29.296875
6781,-25.390625
6782,-31.250000
6783,-31.250000
6784,-29.296875
6785,-29.296875
6786,-29.296875
6787,-29.296875
6788,-31.250000
6789,-29.296875
6790,-31.250000
6791,-29.296875
6792,-29.296875
6793,-29.296875
6794,-29.296875
6795,-29.296875
6796,-29.296875
6797,-25.390625
6798,-27.343750
6799,-29.296875
6800,-25.390625
6801,-25.390625
6802,-23.437500
6803,-25.390625
6804,-25.390625
6805,-23.437500
6806,-25.390625
6807,-23.437500
6808,-23.437500
6809,-21.484375
6810,-23.437500
6811,-19.531250
6812,-19.531250
6813,-21.484375
6814,-19.531250
6815,-23.437500
6816,-19.531250
6817,-23.437500
6818,-21.484375
6819,-21.484375
6820,-21.484375
6821,-19.531250
6822,-21.484375
6823,-21.484375
6824,-19.531250
6825,-23.437500
6826,-21.484375
6827,-21.484375
6828,-21.484375
6829,-19.531250
6830,-21.484375
6831,-23.437500
6832,-21.484375
6833,-21.484375
6834,-21.484375
6835,-23.437500
6836,-19.531250
6837,-21.484375
6838,-21.484375
6839,-23.437500
6840,-25.390625
6841,-23.437500
6842,-23.437500
6843,-21.484375
6844,-23.437500
6845,-27.343750
6846,-21.484375
6847,-25.390625
6848,-21.484375
6849,-25.390625
6850,-17.578125
6851,-25.390625
6852,-25.390625
6853,-23.437500
6854,-25.390625
6855,-25.390625
6856,-25.390625
6857,-25.390625
6858,-29.296875
6859,-25.390625
6860,-25.390625
6861,-25.390625
6862,-27.343750
6863,-29.296875
6864,-25.390625
6865,-31.250000
6866,-29.296875
6867,-29.296875
6868,-29.296875
6869,-25.390625
6870,-29.296875
6871,-29.296875
6872,-25.390625
6873,-29.296875
6874,-29.296875
6875,-31.250000
6876,-25.390625
6877,-29.296875
6878,-29.296875
6879,-25.390625
6880,-29.296875
6881,-27.343750
6882,-33.203125
6883,-29.296875
6884,-29.296875
6885,-29.296875
6886,-27.343750
6887,-31.250000
6888,-29.296875
6889,-31.250000
6890,-25.390625
6891,-29.296875
6892,-29.296875
6893,-29.296875
6894,-29.296875
6895,-25.390625
6896,-29.296875
6897,-29.296875
6898,-23.437500
6899,-29.296875
6900,-25.390625
6901,-33.203125
6902,-29.296875
6903,-29.296875
6904,-29.296875
6905,-29.296875
6906,-29.296875
6907,-29.296875
6908,-29.296875
6909,-29.296875
6910,-29.296875
6911,-25.390625
6912,-29.296875
6913,-29.296875
6914,-29.296875
6915,-31.250000
6916,-25.390625
6917,-31.250000
6918,-29.296875
6919,-25.390625
6920,-31.250000
6921,-33.203125
6922,-31.250000
6923,-29.296875
6924,-29.296875
6925,-29.296875
6926,-29.296875
6927,-31.250000
6928,-21.484375
6929,-37.109375
6930,-29.296875
6931,-29.296875
6932,-29.296875
6933,-29.296875
6934,-33.203125
6935,-29.296875
6936,-29.296875
6937,-31.250000
6938,-31.250000
6939,-31.250000
6940,-29.296875
6941,-31.250000
6942,-29.296875
6943,-33.203125
6944,-29.296875
6945,-31.250000
6946,-29.296875
6947,-29.296875
6948,-33.203125
6949,-31.250000
6950,-33.203125
6951,-29.296875
6952,-33.203125
6953,-29.296875
6954,-29.296875
6955,-31.250000
6956,-33.203125
6957,-33.203125
6958,-31.250000
6959,-31.250000
6960,-31.250000
6961,-33.203125
6962,-33.203125
6963,-29.296875
6964,-33.203125
6965,-31.250000
6966,-29.296875
6967,-33.203125
6968,-31.250000
6969,-29.296875
6970,-33.203125
6971,-31.250000
6972,-33.203125
6973,-31.250000
6974,-31.250000
6975,-31.250000
6976,-29.296875
6977,-33.203125
6978,-31.250000
6979,-31.250000
6980,-31.250000
6981,-29.296875
6982,-31.250000
6983,-31.250000
6984,-31.250000
6985,-31.250000
6986,-33.203125
6987,-33.203125
6988,-31.250000
6989,-31.250000
6990,-31.250000
6991,-31.250000
6992,-31.250000
6993,-31.250000
6994,-31.250000
6995,-31.250000
6996,-31.250000
6997,-31.250000
6998,-31.250000
6999,-33.203125
7000,-27.343750
7001,-31.250000
7002,-29.296875
7003,-33.203125
7004,-29.296875
7005,-31.250000
7006,-29.296875
7007,-33.203125
7008,-33.203125
7009,-31.250000
7010,-33.203125
7011,-31.250000
7012,-31.250000
7013,-31.250000
7014,-31.250000
7015,-31.250000
7016,-33.203125
7017,-31.250000
7018,-31.250000
7019,-29.296875
7020,-33.203125
7021,-33.203125
7022,-33.203125
7023,-31.250000
7024,-29.296875
7025,-33.203125
7026,-31.250000
7027,-33.203125
7028,-31.250000
7029,-33.203125
7030,-33.203125
7031,-33.203125
7032,-33.203125
7033,-31.250000
7034,-35.156250
7035,-31.250000
7036,-33.203125
7037,-33.203125
7038,-31.250000
7039,-33.203125
7040,-31.250000
7041,-33.203125
7042,-33.203125
7043,-41.015625
7044,-31.250000
7045,-33.203125
7046,-41.015625
7047,-33.203125
7048,-33.203125
7049,-33.203125
7050,-33.203125
7051,-33.203125
7052,-33.203125
7053,-33.203125
7054,-33.203125
7055,-33.203125
7056,-35.156250
7057,-33.203125
7058,-35.156250
7059,-33.203125
7060,-35.156250
7061,-35.156250
7062,-33.203125
7063,-35.156250
7064,-29.296875
7065,-37.109375
7066,-33.203125
7067,-35.156250
7068,-39.062500
7069,-33.203125
7070,-35.156250
7071,-33.203125
7072,-25.390625
7073,-33.203125
7074,-35.156250
7075,-35.156250
7076,-33.203125
7077,-35.156250
7078,-33.203125
7079,-35.156250
7080,-35.156250
7081,-33.203125
7082,-35.156250
7083,-33.203125
7084,-33.203125
7085,-33.203125
7086,-33.203125
7087,-35.156250
7088,-33.203125
7089,-35.156250
7090,-33.203125
7091,-33.203125
7092,-35.156250
7093,-33.203125
7094,-33.203125
7095,-33.203125
7096,-35.156250
7097,-35.156250
7098,-31.250000
7099,-35.156250
7100,-33.203125
7101,-33.203125
7102,-33.203125
7103,-33.203125
7104,-33.203125
7105,-33.203125
7106,-33.203125
7107,-33.203125
7108,-33.203125
7109,-31.250000
7110,-29.296875
7111,-33.203125
7112,-29.296875
7113,-29.296875
7114,-29.296875
7115,-31.250000
7116,-33.203125
7117,-29.296875
7118,-33.203125
7119,-33.203125
7120,-29.296875
7121,-31.250000
7122,-31.250000
7123,-31.250000
7124,-29.296875
7125,-33.203125
7126,-17.578125
7127,-29.296875
7128,-29.296875
7129,-25.390625
7130,-33.203125
7131,-25.390625
7132,-25.390625
7133,-25.390625
7134,-25.390625
7135,-23.437500
7136,-19.531250
7137,-21.484375
7138,-21.484375
7139,-21.484375
7140,-17.578125
7141,-15.625000
7142,-17.578125
7143,-15.625000
7144,-13.671875
7145,-13.671875
7146,-13.671875
7147,-13.671875
7148,-9.765625
7149,-11.718750
7150,-9.765625
7151,-13.671875
7152,-9.765625
7153,-7.812500
7154,-9.765625
7155,-5.859375
7156,-5.859375
7157,-5.859375
7158,-3.906250
7159,-9.765625
7160,-3.906250
7161,-5.859375
7162,-1.953125
7163,-1.953125
7164,-1.953125
7165,-1.953125
7166,-1.953125
7167,1.953125
7168,-1.953125
7169,-1.953125
7170,1.953125
7171,1.953125
7172,5.859375
7173,0.000000
7174,1.953125
7175,5.859375
7176,1.953125
7177,3.906250
7178,3.906250
7179,5.859375
7180,0.000000
7181,3.906250
7182,5.859375
7183,5.859375
7184,5.859375
7185,1.953125
7186,5.859375
7187,7.812500
7188,5.859375
7189,9.765625
7190,5.859375
7191,5.859375
7192,5.859375
7193,7.812500
7194,5.859375
7195,7.812500
7196,9.765625
7197,5.859375
7198,9.765625
7199,5.859375
7200,5.859375
7201,5.859375
7202,5.859375
7203,5.859375
7204,5.859375
7205,5.859375
7206,1.953125
7207,5.859375
7208,1.953125
7209,1.953125
7210,5.859375
7211,1.953125
7212,5.859375
7213,1.953125
7214,5.859375
7215,1.953125
7216,0.000000
7217,1.953125
7218,1.953125
7219,0.000000
7220,1.953125
7221,0.000000
7222,0.000000
7223,5.859375
7224,-1.953125
7225,1.953125
7226,-1.953125
7227,-1.953125
7228,1.953125
7229,-1.953125
7230,0.000000
7231,-3.906250
7232,-3.906250
7233,-1.953125
7234,-5.859375
7235,-1.953125
7236,-5.859375
7237,-3.906250
7238,-5.859375
7239,-5.859375
7240,-5.859375
7241,-7.812500
7242,-3.906250
7243,-9.765625
7244,-3.906250
7245,-9.765625
7246,-5.859375
7247,-7.812500
7248,-7.812500
7249,-7.812500
7250,-21.484375
7251,-7.812500
7252,-7.812500
7253,-9.765625
7254,-5.859375
7255,-9.765625
7256,-7.812500
7257,-9.765625
7258,-7.812500
7259,-7.812500
7260,-7.812500
7261,-7.812500
7262,-9.765625
7263,-3.906250
7264,-9.765625
7265,-9.765625
7266,-9.765625
7267,-13.671875
7268,-7.812500
7269,-9.765625
7270,-9.765625
7271,-7.812500
7272,-7.812500
7273,-7.812500
7274,-7.812500
7275,-3.906250
7276,-9.765625
7277,-7.812500
7278,-5.859375
7279,-9.765625
7280,-7.812500
7281,-5.859375
7282,-3.906250
7283,-3.906250
7284,-5.859375
7285,-7.812500
7286,-5.859375
7287,-7.812500
7288,-5.859375
7289,-7.812500
7290,-5.859375
7291,-5.859375
7292,-5.859375
7293,-5.859375
7294,-5.859375
7295,-5.859375
7296,-7.812500
7297,-5.859375
7298,-7.812500
7299,-5.859375
7300,-5.859375
7301,-7.812500
7302,-5.859375
7303,-7.812500
7304,-5.859375
7305,-1.953125
7306,-5.859375
7307,-5.859375
7308,-3.906250
7309,-5.859375
7310,-7.812500
7311,-3.906250
7312,-7.812500
7313,-5.859375
7314,-5.859375
7315,-7.812500
7316,-5.859375
7317,-7.812500
7318,-5.859375
7319,-3.906250
7320,-7.812500
7321,-5.859375
7322,-17.578125
7323,-1.953125
7324,-5.859375
7325,-5.859375
7326,-3.906250
7327,-7.812500
7328,-3.906250
7329,-7.812500
7330,-1.953125
7331,-3.906250
7332,-3.906250
7333,-1.953125
7334,-1.953125
7335,-1.953125
7336,-1.953125
7337,-13.671875
7338,-1.953125
7339,-17.578125
7340,-1.953125
7341,-3.906250
7342,-5.859375
7343,-1.953125
7344,-1.953125
7345,0.000000
7346,-9.765625
7347,-1.953125
7348,-1.953125
7349,0.000000
7350,-1.953125
7351,0.000000
7352,1.953125
7353,0.000000
7354,1.953125
7355,1.953125
7356,0.000000
7357,1.953125
7358,0.000000
7359,0.000000
7360,1.953125
7361,1.953125
7362,1.953125
7363,1.953125
7364,1.953125
7365,3.906250
7366,-1.953125
7367,3.906250
7368,5.859375
7369,5.859375
7370,3.906250
7371,5.859375
7372,5.859375
7373,1.953125
7374,5.859375
7375,5.859375
7376,5.859375
7377,5.859375
7378,5.859375
7379,5.859375
7380,5.859375
7381,5.859375
7382,5.859375
7383,5.859375
7384,5.859375
7385,5.859375
7386,5.859375
7387,3.906250
7388,5.859375
7389,5.859375
7390,5.859375
7391,5.859375
7392,5.859375
7393,5.859375
7394,5.859375
7395,3.906250
7396,5.859375
7397,5.859375
7398,5.859375
7399,1.953125
7400,5.859375
7401,1.953125
7402,5.859375
7403,5.859375
7404,1.953125
7405,5.859375
7406,0.000000
7407,5.859375
7408,3.906250
7409,5.859375
7410,5.859375
7411,3.906250
7412,5.859375
7413,1.953125
7414,5.859375
7415,1.953125
7416,1.953125
7417,1.953125
7418,5.859375
7419,3.906250
7420,5.859375
7421,5.859375
7422,5.859375
7423,1.953125
7424,1.953125
7425,3.906250
7426,3.906250
7427,1.953125
7428,1.953125
7429,3.906250
7430,1.953125
7431,1.953125
7432,1.953125
7433,1.953125
7434,1.953125
7435,3.906250
7436,1.953125
7437,1.953125
7438,1.953125
7439,1.953125
7440,1.953125
7441,1.953125
7442,1.953125
7443,1.953125
7444,-1.953125
7445,5.859375
7446,5.859375
7447,1.953125
7448,1.953125
7449,0.000000
7450,1.953125
7451,0.000000
7452,1.953125
7453,5.859375
7454,1.953125
7455,1.953125
7456,0.000000
7457,1.953125
7458,0.000000
7459,1.953125
7460,0.000000
7461,0.000000
7462,1.953125
7463,0.000000
7464,0.000000
7465,-1.953125
7466,-1.953125
7467,1.953125
7468,-1.953125
7469,-1.953125
7470,1.953125
7471,-1.953125
7472,0.000000
7473,0.000000
7474,-3.906250
7475,0.000000
7476,-1.953125
7477,0.000000
7478,0.000000
7479,-1.953125
7480,0.000000
7481,0.000000
7482,0.000000
7483,-7.812500
7484,0.000000
7485,-1.953125
7486,0.000000
7487,-1.953125
7488,-1.953125
7489,0.000000
7490,-1.953125
7491,0.000000
7492,-1.953125
7493,-1.953125
7494,-1.953125
7495,-3.906250
7496,-1.953125
7497,-1.953125
7498,-1.953125
7499,-1.953125
7500,-1.953125
7501,-3.906250
7502,-3.906250
7503,-3.906250
7504,-7.812500
7505,-3.906250
7506,-5.859375
7507,-3.906250
7508,-5.859375
7509,-5.859375
7510,-3.906250
7511,-9.765625
7512,-5.859375
7513,-7.812500
7514,-7.812500
7515,-7.812500
7516,-7.812500
7517,-7.812500
7518,-9.765625
7519,-9.765625
7520,-9.765625
7521,-9.765625
7522,-9.765625
7523,-9.765625
7524,-7.812500
7525,-11.718750
7526,-9.765625
7527,-11.718750
7528,-13.671875
7529,-11.718750
7530,-13.671875
7531,-13.671875
7532,-17.578125
7533,-13.671875
7534,-13.671875
7535,-15.625000
7536,-17.578125
7537,-17.578125
7538,-15.625000
7539,-17.578125
7540,-21.484375
7541,-17.578125
7542,-19.531250
7543,-17.578125
7544,-21.484375
7545,-19.531250
7546,-21.484375
7547,-19.531250
7548,-21.484375
7549,-23.437500
7550,-23.437500
7551,-25.390625
7552,-23.437500
7553,-25.390625
7554,-25.390625
7555,-25.390625
7556,-25.390625
7557,-25.390625
7558,-25.390625
7559,-23.437500
7560,-25.390625
7561,-25.390625
7562,-25.390625
7563,-27.343750
7564,-25.390625
7565,-25.390625
7566,-25.390625
7567,-25.390625
7568,-25.390625
7569,-23.437500
7570,-27.343750
7571,-25.390625
7572,-27.343750
7573,-25.390625
7574,-23.437500
7575,-29.296875
7576,-25.390625
7577,-29.296875
7578,-25.390625
7579,-25.390625
7580,-29.296875
7581,-25.390625
7582,-25.390625
7583,-25.390625
7584,-27.343750
7585,-29.296875
7586,-25.390625
7587,-29.296875
7588,-25.390625
7589,-29.296875
7590,-29.296875
7591,-29.296875
7592,-29.296875
7593,-29.296875
7594,-29.296875
7595,-29.296875
7596,-29.296875
7597,-29.296875
7598,-31.250000
7599,-29.296875
7600,-29.296875
7601,-33.203125
7602,-31.250000
7603,-35.156250
7604,-33.203125
7605,-33.203125
7606,-33.203125
7607,-35.156250
7608,-35.156250
7609,-33.203125
7610,-39.062500
7611,-35.156250
7612,-39.062500
7613,-39.062500
7614,-39.062500
7615,-41.015625
7616,-41.015625
7617,-41.015625
7618,-41.015625
7619,-41.015625
7620,-44.921875
7621,-44.921875
7622,-44.921875
7623,-48.828125
7624,-48.828125
7625,-46.875000
7626,-48.828125
7627,-48.828125
7628,-50.781250
7629,-50.781250
7630,-52.734375
7631,-48.828125
7632,-48.828125
7633,-48.828125
7634,-54.687500
7635,-54.687500
7636,-48.828125
7637,-52.734375
7638,-54.687500
7639,-52.734375
7640,-54.687500
7641,-50.781250
7642,-54.687500
7643,-52.734375
7644,-52.734375
7645,-50.781250
7646,-52.734375
7647,-54.687500
7648,-50.781250
7649,-52.734375
7650,-52.734375
7651,-50.781250
7652,-48.828125
7653,-52.734375
7654,-50.781250
7655,-50.781250
7656,-54.687500
7657,-50.781250
7658,-54.687500
7659,-50.781250
7660,-52.734375
7661,-54.687500
7662,-52.734375
7663,-54.687500
7664,-50.781250
7665,-52.734375
7666,-50.781250
7667,-52.734375
7668,-52.734375
7669,-46.875000
7670,-52.734375
7671,-50.781250
7672,-52.734375
7673,-52.734375
7674,-54.687500
7675,-56.640625
7676,-50.781250
7677,-56.640625
7678,-54.687500
7679,-52.734375
7680,-56.640625
7681,-46.875000
7682,-56.640625
7683,-52.734375
7684,-56.640625
7685,-56.640625
7686,-50.781250
7687,-56.640625
7688,-52.734375
7689,-56.640625
7690,-52.734375
7691,-56.640625
7692,-56.640625
7693,-56.640625
7694,-56.640625
7695,-56.640625
7696,-54.687500
7697,-54.687500
7698,-56.640625
7699,-56.640625
7700,-56.640625
7701,-54.687500
7702,-56.640625
7703,-56.640625
7704,-50.781250
7705,-56.640625
7706,-56.640625
7707,-56.640625
7708,-56.640625
7709,-56.640625
7710,-56.640625
7711,-52.734375
7712,-56.640625
7713,-54.687500
7714,-56.640625
7715,-56.640625
7716,-56.640625
7717,-56.640625
7718,-56.640625
7719,-54.687500
7720,-56.640625
7721,-54.687500
7722,-56.640625
7723,-56.640625
7724,-56.640625
7725,-56.640625
7726,-54.687500
7727,-50.781250
7728,-56.640625
7729,-60.546875
7730,-56.640625
7731,-54.687500
7732,-56.640625
7733,-54.687500
7734,-56.640625
7735,-56.640625
7736,-54.687500
7737,-56.640625
7738,-52.734375
7739,-62.500000
7740,-54.687500
7741,-54.687500
7742,-56.640625
7743,-52.734375
7744,-56.640625
7745,-54.687500
7746,-56.640625
7747,-54.687500
7748,-56.640625
7749,-52.734375
7750,-52.734375
7751,-54.687500
7752,-48.828125
7753,-54.687500
7754,-52.734375
7755,-52.734375
7756,-50.781250
7757,-50.781250
7758,-52.734375
7759,-52.734375
7760,-48.828125
7761,-50.781250
7762,-54.687500
7763,-50.781250
7764,-48.828125
7765,-52.734375
7766,-48.828125
7767,-48.828125
7768,-41.015625
7769,-50.781250
7770,-52.734375
7771,-48.828125
7772,-48.828125
7773,-46.875000
7774,-48.828125
7775,-50.781250
7776,-44.921875
7777,-48.828125
7778,-48.828125
7779,-46.875000
7780,-48.828125
7781,-48.828125
7782,-48.828125
7783,-44.921875
7784,-44.921875
7785,-48.828125
7786,-46.875000
7787,-46.875000
7788,-44.921875
7789,-44.921875
7790,-44.921875
7791,-44.921875
7792,-44.921875
7793,-44.921875
7794,-46.875000
7795,-41.015625
7796,-44.921875
7797,-48.828125
7798,-41.015625
7799,-44.921875
7800,-44.921875
7801,-46.875000
7802,-44.921875
7803,-44.921875
7804,-41.015625
7805,-41.015625
7806,-44.921875
7807,-44.921875
7808,-44.921875
7809,-44.921875
7810,-46.875000
7811,-41.015625
7812,-42.968750
7813,-44.921875
7814,-44.921875
7815,-44.921875
7816,-44.921875
7817,-44.921875
7818,-44.921875
7819,-41.015625
7820,-46.875000
7821,-44.921875
7822,-44.921875
7823,-44.921875
7824,-41.015625
7825,-44.921875
7826,-41.015625
7827,-44.921875
7828,-42.968750
7829,-44.921875
7830,-46.875000
7831,-46.875000
7832,-44.921875
7833,-44.921875
7834,-44.921875
7835,-44.921875
7836,-44.921875
7837,-44.921875
7838,-44.921875
7839,-44.921875
7840,-44.921875
7841,-46.875000
7842,-46.875000
7843,-44.921875
7844,-46.875000
7845,-44.921875
7846,-48.828125
7847,-46.875000
7848,-46.875000
7849,-46.875000
7850,-44.921875
7851,-48.828125
7852,-44.921875
7853,-46.875000
7854,-46.875000
7855,-52.734375
7856,-46.875000
7857,-44.921875
7858,-50.781250
7859,-44.921875
7860,-44.921875
7861,-44.921875
7862,-48.828125
7863,-48.828125
7864,-46.875000
7865,-56.640625
7866,-44.921875
7867,-48.828125
7868,-44.921875
7869,-48.828125
7870,-46.875000
7871,-44.921875
7872,-44.921875
7873,-48.828125
7874,-46.875000
7875,-48.828125
7876,-46.875000
7877,-46.875000
7878,-46.875000
7879,-48.828125
7880,-48.828125
7881,-46.875000
7882,-48.828125
7883,-44.921875
7884,-60.546875
7885,-46.875000
7886,-48.828125
7887,-48.828125
7888,-46.875000
7889,-48.828125
7890,-46.875000
7891,-50.781250
7892,-48.828125
7893,-48.828125
7894,-50.781250
7895,-46.875000
7896,-50.781250
7897,-46.875000
7898,-52.734375
7899,-48.828125
7900,-48.828125
7901,-52.734375
7902,-48.828125
7903,-48.828125
7904,-48.828125
7905,-50.781250
7906,-54.687500
7907,-50.781250
7908,-50.781250
7909,-48.828125
7910,-54.687500
7911,-50.781250
7912,-52.734375
7913,-52.734375
7914,-48.828125
7915,-52.734375
7916,-52.734375
7917,-50.781250
7918,-56.640625
7919,-54.687500
7920,-52.734375
7921,-48.828125
7922,-54.687500
7923,-54.687500
7924,-54.687500
7925,-56.640625
7926,-56.640625
7927,-52.734375
7928,-54.687500
7929,-52.734375
7930,-54.687500
7931,-54.687500
7932,-52.734375
7933,-56.640625
7934,-56.640625
7935,-56.640625
7936,-56.640625
7937,-54.687500
7938,-54.687500
7939,-52.734375
7940,-54.687500
7941,-52.734375
7942,-56.640625
7943,-54.687500
7944,-50.781250
7945,-54.687500
7946,-52.734375
7947,-54.687500
7948,-56.640625
7949,-48.828125
7950,-54.687500
7951,-52.734375
7952,-54.687500
7953,-56.640625
7954,-48.828125
7955,-54.687500
7956,-50.781250
7957,-54.687500
7958,-50.781250
7959,-54.687500
7960,-52.734375
7961,-48.828125
7962,-52.734375
7963,-48.828125
7964,-52.734375
7965,-50.781250
7966,-48.828125
7967,-58.593750
7968,-48.828125
7969,-48.828125
7970,-48.828125
7971,-44.921875
7972,-46.875000
7973,-48.828125
7974,-44.921875
7975,-46.875000
7976,-44.921875
7977,-44.921875
7978,-44.921875
7979,-42.968750
7980,-41.015625
7981,-41.015625
7982,-44.921875
7983,-41.015625
7984,-41.015625
7985,-41.015625
7986,-41.015625
7987,-44.921875
7988,-39.062500
7989,-41.015625
7990,-39.062500
7991,-37.109375
7992,-39.062500
7993,-35.156250
7994,-37.109375
7995,-35.156250
7996,-41.015625
7997,-35.156250
7998,-33.203125
7999,-33.203125
8000,-33.203125
8001,-35.156250
8002,-33.203125
8003,-33.203125
8004,-33.203125
8005,-33.203125
8006,-37.109375
8007,-33.203125
8008,-35.156250
8009,-33.203125
8010,-33.203125
8011,-33.203125
8012,-31.250000
8013,-33.203125
8014,-31.250000
8015,-33.203125
8016,-31.250000
8017,-29.296875
8018,-29.296875
8019,-25.390625
8020,-25.390625
8021,-29.296875
8022,-25.390625
8023,-25.390625
8024,-25.390625
8025,-9.765625
8026,-25.390625
8027,-25.390625
8028,-23.437500
8029,-21.484375
8030,-23.437500
8031,-23.437500
8032,-23.437500
8033,-19.531250
8034,-19.531250
8035,-19.531250
8036,-19.531250
8037,-19.531250
8038,-15.625000
8039,-17.578125
8040,-15.625000
8041,-15.625000
8042,-17.578125
8043,-13.671875
8044,-15.625000
8045,-15.625000
8046,-13.671875
8047,-15.625000
8048,-13.671875
8049,-13.671875
8050,-11.718750
8051,-13.671875
8052,-11.718750
8053,-13.671875
8054,-5.859375
8055,-9.765625
8056,-13.671875
8057,-9.765625
8058,-9.765625
8059,-9.765625
8060,-9.765625
8061,-9.765625
8062,-9.765625
8063,-9.765625
8064,-9.765625
8065,-9.765625
8066,-9.765625
8067,-9.765625
8068,-9.765625
8069,-9.765625
8070,-13.671875
8071,-9.765625
8072,-9.765625
8073,-9.765625
8074,-5.859375
8075,-13.671875
8076,-9.765625
8077,-7.812500
8078,-9.765625
8079,-9.765625
8080,-9.765625
8081,-9.765625
8082,-9.765625
8083,-7.812500
8084,-7.812500
8085,-9.765625
8086,-7.812500
8087,-9.765625
8088,-9.765625
8089,-9.765625
8090,-9.765625
8091,-7.812500
8092,-9.765625
8093,-7.812500
8094,-9.765625
8095,-9.765625
8096,-9.765625
8097,-9.765625
8098,-9.765625
8099,-9.765625
8100,-9.765625
8101,-9.765625
8102,-7.812500
8103,-15.625000
8104,-9.765625
8105,-5.859375
8106,-9.765625
8107,-7.812500
8108,-7.812500
8109,-9.765625
8110,-7.812500
8111,-9.765625
8112,-7.812500
8113,-9.765625
8114,-5.859375
8115,-7.812500
8116,-7.812500
8117,-7.812500
8118,-9.765625
8119,-3.906250
8120,-7.812500
8121,-5.859375
8122,-3.906250
8123,-9.765625
8124,-3.906250
8125,-5.859375
8126,-7.812500
8127,-5.859375
8128,-5.859375
8129,-5.859375
8130,-7.812500
8131,-3.906250
8132,-5.859375
8133,-5.859375
8134,-3.906250
8135,-5.859375
8136,-3.906250
8137,-7.812500
8138,-3.906250
8139,-3.906250
8140,-3.906250
8141,-3.906250
8142,-5.859375
8143,-1.953125
8144,-7.812500
8145,-3.906250
8146,-9.765625
8147,-5.859375
8148,-3.906250
8149,-3.906250
8150,-3.906250
8151,-7.812500
8152,-3.906250
8153,-1.953125
8154,-7.812500
8155,-5.859375
8156,-9.765625
8157,-3.906250
8158,-7.812500
8159,-3.906250
8160,-3.906250
8161,-5.859375
8162,-9.765625
8163,-5.859375
8164,-3.906250
8165,-5.859375
8166,-5.859375
8167,-7.812500
8168,-7.812500
8169,-5.859375
8170,-1.953125
8171,-3.906250
8172,-5.859375
8173,-1.953125
8174,-3.906250
8175,-7.812500
8176,-3.906250
8177,-3.906250
8178,-3.906250
8179,-3.906250
8180,-3.906250
8181,-1.953125
8182,-3.906250
8183,-3.906250
8184,-1.953125
8185,-1.953125
8186,-1.953125
8187,-3.906250
8188,-1.953125
8189,-3.906250
8190,-1.953125
8191,-5.859375
8192,1.953125
8193,-1.953125
8194,-1.953125
8195,-5.859375
8196,-1.953125
8197,-1.953125
8198,-3.906250
8199,-1.953125
8200,-1.953125
8201,-1.953125
8202,-1.953125
8203,-1.953125
8204,-1.953125
8205,-1.953125
8206,-1.953125
8207,-1.953125
8208,-1.953125
8209,-1.953125
8210,-1.953125
8211,-1.953125
8212,-3.906250
8213,0.000000
8214,-1.953125
8215,0.000000
8216,-1.953125
8217,-1.953125
8218,-1.953125
8219,-1.953125
8220,-5.859375
8221,0.000000
8222,-1.953125
8223,1.953125
8224,0.000000
8225,-1.953125
8226,1.953125
8227,-1.953125
8228,-9.765625
8229,-1.953125
8230,1.953125
8231,0.000000
8232,-1.953125
8233,1.953125
8234,-1.953125
8235,5.859375
8236,-1.953125
8237,0.000000
8238,-1.953125
8239,0.000000
8240,0.000000
8241,-1.953125
8242,1.953125
8243,-1.953125
8244,0.000000
8245,-1.953125
8246,-1.953125
8247,0.000000
8248,-1.953125
8249,1.953125
8250,-1.953125
8251,-1.953125
8252,-1.953125
8253,-1.953125
8254,-1.953125
8255,-1.953125
8256,-1.953125
8257,5.859375
8258,-1.953125
8259,0.000000
8260,-1.953125
8261,-1.953125
8262,-3.906250
8263,-1.953125
8264,-1.953125
8265,-1.953125
8266,-1.953125
8267,-1.953125
8268,-1.953125
8269,-3.906250
8270,-3.906250
8271,-3.906250
8272,-5.859375
8273,-3.906250
8274,-1.953125
8275,-3.906250
8276,-1.953125
8277,-3.906250
8278,-7.812500
8279,-1.953125
8280,-3.906250
8281,-3.906250
8282,-3.906250
8283,-3.906250
8284,-3.906250
8285,-1.953125
8286,-3.906250
8287,-5.859375
8288,-3.906250
8289,-3.906250
8290,-3.906250
8291,-3.906250
8292,-3.906250
8293,-3.906250
8294,-5.859375
8295,-5.859375
8296,-5.859375
8297,-3.906250
8298,-3.906250
8299,-5.859375
8300,-7.812500
8301,-5.859375
8302,-3.906250
8303,-7.812500
8304,-7.812500
8305,-9.765625
8306,-7.812500
8307,-1.953125
8308,-9.765625
8309,-7.812500
8310,-9.765625
8311,-5.859375
8312,-3.906250
8313,-7.812500
8314,-7.812500
8315,-7.812500
8316,-7.812500
8317,-7.812500
8318,-7.812500
8319,-7.812500
8320,-9.765625
8321,-5.859375
8322,-9.765625
8323,-5.859375
8324,-7.812500
8325,-7.812500
8326,-7.812500
8327,-9.765625
8328,-7.812500
8329,-7.812500
8330,-5.859375
8331,-7.812500
8332,-7.812500
8333,-5.859375
8334,-9.765625
8335,-5.859375
8336,-5.859375
8337,-9.765625
8338,-5.859375
8339,-9.765625
8340,-5.859375
8341,-9.765625
8342,-9.765625
8343,-7.812500
8344,-13.671875
8345,-7.812500
8346,-9.765625
8347,-7.812500
8348,-9.765625
8349,-9.765625
8350,-9.765625
8351,-9.765625
8352,-5.859375
8353,-9.765625
8354,-9.765625
8355,-9.765625
8356,-9.765625
8357,-9.765625
8358,-11.718750
8359,-9.765625
8360,-13.671875
8361,-9.765625
8362,-9.765625
8363,-9.765625
8364,-13.671875
8365,-15.625000
8366,-13.671875
8367,-15.625000
8368,-13.671875
8369,-17.578125
8370,-15.625000
8371,-13.671875
8372,-17.578125
8373,-7.812500
8374,-17.578125
8375,-15.625000
8376,-13.671875
8377,-19.531250
8378,-15.625000
8379,-17.578125
8380,-15.625000
8381,-17.578125
8382,-15.625000
8383,-15.625000
8384,-17.578125
8385,-17.578125
8386,-17.578125
8387,-17.578125
8388,-17.578125
8389,-17.578125
8390,-17.578125
8391,-19.531250
8392,-15.625000
8393,-17.578125
8394,-17.578125
8395,-17.578125
8396,-19.531250
8397,-17.578125
8398,-19.531250
8399,-19.531250
8400,-19.531250
8401,-21.484375
8402,-21.484375
8403,-17.578125
8404,-19.531250
8405,-17.578125
8406,-21.484375
8407,-21.484375
8408,-21.484375
8409,-21.484375
8410,-21.484375
8411,-25.390625
8412,-21.484375
8413,-25.390625
8414,-23.437500
8415,-21.484375
8416,-23.437500
8417,-21.484375
8418,-25.390625
8419,-23.437500
8420,-23.437500
8421,-23.437500
8422,-21.484375
8423,-23.437500
8424,-23.437500
8425,-25.390625
8426,-21.484375
8427,-23.437500
8428,-21.484375
8429,-23.437500
8430,-25.390625
8431,-17.578125
8432,-25.390625
8433,-23.437500
8434,-25.390625
8435,-23.437500
8436,-21.484375
8437,-23.437500
8438,-23.437500
8439,-23.437500
8440,-25.390625
8441,-21.484375
8442,-23.437500
8443,-23.437500
8444,-23.437500
8445,-21.484375
8446,-23.437500
8447,-19.531250
8448,-25.390625
8449,-21.484375
8450,-23.437500
8451,-23.437500
8452,-19.531250
8453,-23.437500
8454,-23.437500
8455,-25.390625
8456,-23.437500
8457,-23.437500
8458,-25.390625
8459,-19.531250
8460,-25.390625
8461,-21.484375
8462,-25.390625
8463,-23.437500
8464,-17.578125
8465,-25.390625
8466,-21.484375
8467,-25.390625
8468,-23.437500
8469,-21.484375
8470,-21.484375
8471,-23.437500
8472,-21.484375
8473,-23.437500
8474,-21.484375
8475,-23.437500
8476,-23.437500
8477,-27.343750
8478,-25.390625
8479,-23.437500
8480,-23.437500
8481,-21.484375
8482,-19.531250
8483,-21.484375
8484,-23.437500
8485,-19.531250
8486,-23.437500
8487,-19.531250
8488,-21.484375
8489,-25.390625
8490,-23.437500
8491,-19.531250
8492,-23.437500
8493,-19.531250
8494,-17.578125
8495,-23.437500
8496,-23.437500
8497,-21.484375
8498,-25.390625
8499,-21.484375
8500,-23.437500
8501,-21.484375
8502,-25.390625
8503,-23.437500
8504,-23.437500
8505,-23.437500
8506,-25.390625
8507,-25.390625
8508,-23.437500
8509,-25.390625
8510,-29.296875
8511,-25.390625
8512,-23.437500
8513,-25.390625
8514,-23.437500
8515,-21.484375
8516,-25.390625
8517,-23.437500
8518,-25.390625
8519,-25.390625
8520,-23.437500
8521,-29.296875
8522,-31.250000
8523,-25.390625
8524,-27.343750
8525,-27.343750
8526,-29.296875
8527,-25.390625
8528,-29.296875
8529,-25.390625
8530,-31.250000
8531,-29.296875
8532,-29.296875
8533,-33.203125
8534,-29.296875
8535,-35.156250
8536,-33.203125
8537,-33.203125
8538,-35.156250
8539,-35.156250
8540,-37.109375
8541,-33.203125
8542,-37.109375
8543,-37.109375
8544,-39.062500
8545,-41.015625
8546,-37.109375
8547,-41.015625
8548,-41.015625
8549,-41.015625
8550,-41.015625
8551,-37.109375
8552,-42.968750
8553,-41.015625
8554,-44.921875
8555,-41.015625
8556,-48.828125
8557,-44.921875
8558,-44.921875
8559,-46.875000
8560,-44.921875
8561,-48.828125
8562,-44.921875
8563,-48.828125
8564,-48.828125
8565,-48.828125
8566,-46.875000
8567,-48.828125
8568,-50.781250
8569,-48.828125
8570,-48.828125
8571,-50.781250
8572,-48.828125
8573,-50.781250
8574,-50.781250
8575,-54.687500
8576,-50.781250
8577,-52.734375
8578,-52.734375
8579,-50.781250
8580,-70.312500
8581,-50.781250
8582,-52.734375
8583,-52.734375
8584,-54.687500
8585,-56.640625
8586,-54.687500
8587,-54.687500
8588,-54.687500
8589,-56.640625
8590,-52.734375
8591,-56.640625
8592,-60.546875
8593,-54.687500
8594,-56.640625
8595,-56.640625
8596,-56.640625
8597,-56.640625
8598,-56.640625
8599,-56.640625
8600,-54.687500
8601,-58.593750
8602,-56.640625
8603,-56.640625
8604,-60.546875
8605,-56.640625
8606,-60.546875
8607,-56.640625
8608,-60.546875
8609,-58.593750
8610,-60.546875
8611,-46.875000
8612,-56.640625
8613,-60.546875
8614,-60.546875
8615,-60.546875
8616,-60.546875
8617,-56.640625
8618,-60.546875
8619,-56.640625
8620,-60.546875
8621,-56.640625
8622,-62.500000
8623,-60.546875
8624,-56.640625
8625,-58.593750
8626,-56.640625
8627,-56.640625
8628,-60.546875
8629,-56.640625
8630,-60.546875
8631,-56.640625
8632,-60.546875
8633,-58.593750
8634,-54.687500
8635,-60.546875
8636,-60.546875
8637,-60.546875
8638,-60.546875
8639,-60.546875
8640,-56.640625
8641,-60.546875
8642,-60.546875
8643,-56.640625
8644,-60.546875
8645,-56.640625
8646,-60.546875
8647,-60.546875
8648,-60.546875
8649,-60.546875
8650,-60.546875
8651,-56.640625
8652,-56.640625
8653,-60.546875
8654,-60.546875
8655,-60.546875
8656,-60.546875
8657,-56.640625
8658,-60.546875
8659,-66.406250
8660,-60.546875
8661,-60.546875
8662,-60.546875
8663,-60.546875
8664,-60.546875
8665,-62.500000
8666,-60.546875
8667,-60.546875
8668,-60.546875
8669,-56.640625
8670,-60.546875
8671,-60.546875
8672,-62.500000
8673,-60.546875
8674,-58.593750
8675,-60.546875
8676,-56.640625
8677,-56.640625
8678,-56.640625
8679,-56.640625
8680,-60.546875
8681,-58.593750
8682,-56.640625
8683,-60.546875
8684,-56.640625
8685,-60.546875
8686,-56.640625
8687,-60.546875
8688,-56.640625
8689,-60.546875
8690,-58.593750
8691,-56.640625
8692,-56.640625
8693,-56.640625
8694,-56.640625
8695,-56.640625
8696,-56.640625
8697,-56.640625
8698,-60.546875
8699,-56.640625
8700,-54.687500
8701,-54.687500
8702,-54.687500
8703,-56.640625
8704,-56.640625
8705,-58.593750
8706,-52.734375
8707,-56.640625
8708,-56.640625
8709,-60.546875
8710,-56.640625
8711,-54.687500
8712,-56.640625
8713,-52.734375
8714,-56.640625
8715,-54.687500
8716,-54.687500
8717,-56.640625
8718,-52.734375
8719,-54.687500
8720,-54.687500
8721,-50.781250
8722,-54.687500
8723,-56.640625
8724,-50.781250
8725,-52.734375
8726,-52.734375
8727,-52.734375
8728,-54.687500
8729,-48.828125
8730,-56.640625
8731,-48.828125
8732,-50.781250
8733,-48.828125
8734,-48.828125
8735,-48.828125
8736,-46.875000
8737,-48.828125
8738,-41.015625
8739,-48.828125
8740,-48.828125
8741,-46.875000
8742,-52.734375
8743,-46.875000
8744,-48.828125
8745,-48.828125
8746,-44.921875
8747,-48.828125
8748,-48.828125
8749,-48.828125
8750,-48.828125
8751,-52.734375
8752,-48.828125
8753,-48.828125
8754,-46.875000
8755,-46.875000
8756,-48.828125
8757,-48.828125
8758,-46.875000
8759,-48.828125
8760,-46.875000
8761,-48.828125
8762,-48.828125
8763,-48.828125
8764,-46.875000
8765,-48.828125
8766,-46.875000
8767,-46.875000
8768,-48.828125
8769,-48.828125
8770,-48.828125
8771,-48.828125
8772,-46.875000
8773,-41.015625
8774,-48.828125
8775,-44.921875
8776,-46.875000
8777,-46.875000
8778,-44.921875
8779,-46.875000
8780,-44.921875
8781,-44.921875
8782,-44.921875
8783,-44.921875
8784,-44.921875
8785,-41.015625
8786,-42.968750
8787,-42.968750
8788,-41.015625
8789,-44.921875
8790,-41.015625
8791,-44.921875
8792,-48.828125
8793,-44.921875
8794,-41.015625
8795,-41.015625
8796,-41.015625
8797,-41.015625
8798,-41.015625
8799,-41.015625
8800,-41.015625
8801,-41.015625
8802,-41.015625
8803,-42.968750
8804,-41.015625
8805,-44.921875
8806,-44.921875
8807,-41.015625
8808,-44.921875
8809,-41.015625
8810,-41.015625
8811,-41.015625
8812,-41.015625
8813,-41.015625
8814,-39.062500
8815,-41.015625
8816,-39.062500
8817,-41.015625
8818,-39.062500
8819,-37.109375
8820,-39.062500
8821,-29.296875
8822,-37.109375
8823,-35.156250
8824,-35.156250
8825,-35.156250
8826,-33.203125
8827,-35.156250
8828,-33.203125
8829,-25.390625
8830,-33.203125
8831,-33.203125
8832,-35.156250
8833,-33.203125
8834,-35.156250
8835,-33.203125
8836,-35.156250
8837,-33.203125
8838,-33.203125
8839,-33.203125
8840,-33.203125
8841,-33.203125
8842,-29.296875
8843,-33.203125
8844,-31.250000
8845,-33.203125
8846,-33.203125
8847,-29.296875
8848,-35.156250
8849,-31.250000
8850,-33.203125
8851,-33.203125
8852,-33.203125
8853,-33.203125
8854,-31.250000
8855,-31.250000
8856,-31.250000
8857,-33.203125
8858,-25.390625
8859,-29.296875
8860,-35.156250
8861,-29.296875
8862,-35.156250
8863,-33.203125
8864,-33.203125
8865,-37.109375
8866,-33.203125
8867,-35.156250
8868,-33.203125
8869,-25.390625
8870,-35.156250
8871,-33.203125
8872,-33.203125
8873,-33.203125
8874,-35.156250
8875,-33.203125
8876,-33.203125
8877,-35.156250
8878,-33.203125
8879,-35.156250
8880,-33.203125
8881,-33.203125
8882,-33.203125
8883,-33.203125
8884,-35.156250
8885,-33.203125
8886,-35.156250
8887,-31.250000
8888,-33.203125
8889,-33.203125
8890,-33.203125
8891,-37.109375
8892,-35.156250
8893,-33.203125
8894,-35.156250
8895,-33.203125
8896,-35.156250
8897,-35.156250
8898,-35.156250
8899,-33.203125
8900,-35.156250
8901,-35.156250
8902,-35.156250
8903,-35.156250
8904,-35.156250
8905,-33.203125
8906,-33.203125
8907,-33.203125
8908,-33.203125
8909,-31.250000
8910,-33.203125
8911,-33.203125
8912,-31.250000
8913,-33.203125
8914,-33.203125
8915,-31.250000
8916,-31.250000
8917,-33.203125
8918,-31.250000
8919,-31.250000
8920,-37.109375
8921,-33.203125
8922,-31.250000
8923,-31.250000
8924,-29.296875
8925,-31.250000
8926,-29.296875
8927,-31.250000
8928,-29.296875
8929,-31.250000
8930,-29.296875
8931,-29.296875
8932,-29.296875
8933,-29.296875
8934,-29.296875
8935,-27.343750
8936,-29.296875
8937,-29.296875
8938,-25.390625
8939,-29.296875
8940,-27.343750
8941,-29.296875
8942,-25.390625
8943,-25.390625
8944,-25.390625
8945,-29.296875
8946,-25.390625
8947,-25.390625
8948,-33.203125
8949,-35.156250
8950,-23.437500
8951,-23.437500
8952,-25.390625
8953,-21.484375
8954,-25.390625
8955,-21.484375
8956,-25.390625
8957,-21.484375
8958,-19.531250
8959,-23.437500
8960,-17.578125
8961,-23.437500
8962,-19.531250
8963,-21.484375
8964,-21.484375
8965,-19.531250
8966,-21.484375
8967,-15.625000
8968,-17.578125
8969,-17.578125
8970,-19.531250
8971,-17.578125
8972,-17.578125
8973,-17.578125
8974,-13.671875
8975,-13.671875
8976,-15.625000
8977,-13.671875
8978,-9.765625
8979,-9.765625
8980,-11.718750
8981,-9.765625
8982,-9.765625
8983,-7.812500
8984,-9.765625
8985,-9.765625
8986,-9.765625
8987,-7.812500
8988,-7.812500
8989,-9.765625
8990,-5.859375
8991,-9.765625
8992,-5.859375
8993,-5.859375
8994,-7.812500
8995,-9.765625
8996,-7.812500
8997,-3.906250
8998,-9.765625
8999,-5.859375
9000,-3.906250
9001,-5.859375
9002,-5.859375
9003,-7.812500
9004,-3.906250
9005,-7.812500
9006,-5.859375
9007,-3.906250
9008,-3.906250
9009,-3.906250
9010,-5.859375
9011,-3.906250
9012,-7.812500
9013,-3.906250
9014,-3.906250
9015,-5.859375
9016,-3.906250
9017,-5.859375
9018,-1.953125
9019,-5.859375
9020,-3.906250
9021,-3.906250
9022,-7.812500
9023,-3.906250
9024,-3.906250
9025,-5.859375
9026,-5.859375
9027,-5.859375
9028,-9.765625
9029,-5.859375
9030,-3.906250
9031,-1.953125
9032,-1.953125
9033,-3.906250
9034,-3.906250
9035,-1.953125
9036,-13.671875
9037,-1.953125
9038,-3.906250
9039,-1.953125
9040,-1.953125
9041,-3.906250
9042,-1.953125
9043,-3.906250
9044,-1.953125
9045,-3.906250
9046,-1.953125
9047,-1.953125
9048,-3.906250
9049,-3.906250
9050,-3.906250
9051,-3.906250
9052,-1.953125
9053,-1.953125
9054,-3.906250
9055,-3.906250
9056,-1.953125
9057,-3.906250
9058,-3.906250
9059,-3.906250
9060,-3.906250
9061,-1.953125
9062,-5.859375
9063,-1.953125
9064,-7.812500
9065,-3.906250
9066,-1.953125
9067,-7.812500
9068,-1.953125
9069,-3.906250
9070,-1.953125
9071,-3.906250
9072,-5.859375
9073,-3.906250
9074,-7.812500
9075,-3.906250
9076,-7.812500
9077,-7.812500
9078,-7.812500
9079,-3.906250
9080,-1.953125
9081,-7.812500
9082,-3.906250
9083,-3.906250
9084,-5.859375
9085,-7.812500
9086,-3.906250
9087,-3.906250
9088,-9.765625
9089,-5.859375
9090,-7.812500
9091,-7.812500
9092,-5.859375
9093,-7.812500
9094,-7.812500
9095,-9.765625
9096,-7.812500
9097,-3.906250
9098,-9.765625
9099,-7.812500
9100,-9.765625
9101,-7.812500
9102,-9.765625
9103,-9.765625
9104,-9.765625
9105,-9.765625
9106,-9.765625
9107,-9.765625
9108,-9.765625
9109,-9.765625
9110,-9.765625
9111,-9.765625
9112,-9.765625
9113,-7.812500
9114,-9.765625
9115,-9.765625
9116,-9.765625
9117,-9.765625
9118,-9.765625
9119,-9.765625
9120,-9.765625
9121,-9.765625
9122,-7.812500
9123,-9.765625
9124,-9.765625
9125,-7.812500
9126,-9.765625
9127,-9.765625
9128,-7.812500
9129,-7.812500
9130,-7.812500
9131,-7.812500
9132,-7.812500
9133,-7.812500
9134,-3.906250
9135,-5.859375
9136,-7.812500
9137,-5.859375
9138,-7.812500
9139,-5.859375
9140,-7.812500
9141,-9.765625
9142,-5.859375
9143,-5.859375
9144,-5.859375
9145,-7.812500
9146,-5.859375
9147,-5.859375
9148,-9.765625
9149,-5.859375
9150,-5.859375
9151,-5.859375
9152,-1.953125
9153,-5.859375
9154,-5.859375
9155,-5.859375
9156,-5.859375
9157,-7.812500
9158,-5.859375
9159,-5.859375
9160,-5.859375
9161,-7.812500
9162,-5.859375
9163,-3.906250
9164,-5.859375
9165,-5.859375
9166,-7.812500
9167,-7.812500
9168,-5.859375
9169,-5.859375
9170,-5.859375
9171,-5.859375
9172,-7.812500
9173,-1.953125
9174,-5.859375
9175,-5.859375
9176,-5.859375
9177,-3.906250
9178,-3.906250
9179,-5.859375
9180,-3.906250
9181,-5.859375
9182,-5.859375
9183,-1.953125
9184,-5.859375
9185,-5.859375
9186,-3.906250
9187,-3.906250
9188,-3.906250
9189,-3.906250
9190,-3.906250
9191,-5.859375
9192,-3.906250
9193,-9.765625
9194,-5.859375
9195,-5.859375
9196,-3.906250
9197,-7.812500
9198,-3.906250
9199,-5.859375
9200,-3.906250
9201,-5.859375
9202,-5.859375
9203,-5.859375
9204,-7.812500
9205,-1.953125
9206,-7.812500
9207,-3.906250
9208,-5.859375
9209,-7.812500
9210,-13.671875
9211,-7.812500
9212,-3.906250
9213,-7.812500
9214,-3.906250
9215,-5.859375
9216,-7.812500
9217,-3.906250
9218,-7.812500
9219,-7.812500
9220,-17.578125
9221,-5.859375
9222,-5.859375
9223,-3.906250
9224,-7.812500
9225,-3.906250
9226,-9.765625
9227,-7.812500
9228,-5.859375
9229,-9.765625
9230,-1.953125
9231,-7.812500
9232,-3.906250
9233,-5.859375
9234,-3.906250
9235,-19.531250
9236,-5.859375
9237,-1.953125
9238,-7.812500
9239,-3.906250
9240,-5.859375
9241,-7.812500
9242,-1.953125
9243,-7.812500
9244,-3.906250
9245,-5.859375
9246,-5.859375
9247,-5.859375
9248,-9.765625
9249,-3.906250
9250,-7.812500
9251,-3.906250
9252,-7.812500
9253,-5.859375
9254,-1.953125
9255,-7.812500
9256,-3.906250
9257,-9.765625
9258,-3.906250
9259,-5.859375
9260,-5.859375
9261,-3.906250
9262,-7.812500
9263,-3.906250
9264,-7.812500
9265,-3.906250
9266,-7.812500
9267,-5.859375
9268,-3.906250
9269,-5.859375
9270,-1.953125
9271,-3.906250
9272,-3.906250
9273,-3.906250
9274,-5.859375
9275,-3.906250
9276,-5.859375
9277,-1.953125
9278,-5.859375
9279,-5.859375
9280,-7.812500
9281,-5.859375
9282,-3.906250
9283,-3.906250
9284,-1.953125
9285,-3.906250
9286,-3.906250
9287,-3.906250
9288,-7.812500
9289,-5.859375
9290,-3.906250
9291,-3.906250
9292,-7.812500
9293,-1.953125
9294,-5.859375
9295,-5.859375
9296,-3.906250
9297,-5.859375
9298,-5.859375
9299,-3.906250
9300,-5.859375
9301,-5.859375
9302,-1.953125
9303,-5.859375
9304,-1.953125
9305,-5.859375
9306,-3.906250
9307,-5.859375
9308,-3.906250
9309,-5.859375
9310,-5.859375
9311,-3.906250
9312,-5.859375
9313,-3.906250
9314,-3.906250
9315,-5.859375
9316,-5.859375
9317,-7.812500
9318,-3.906250
9319,-7.812500
9320,-5.859375
9321,-1.953125
9322,-7.812500
9323,-5.859375
9324,-5.859375
9325,-3.906250
9326,-5.859375
9327,-5.859375
9328,-3.906250
9329,-7.812500
9330,-3.906250
9331,-5.859375
9332,-7.812500
9333,-3.906250
9334,-7.812500
9335,-1.953125
9336,-3.906250
9337,-5.859375
9338,-5.859375
9339,-7.812500
9340,-3.906250
9341,-7.812500
9342,-5.859375
9343,-5.859375
9344,-7.812500
9345,-7.812500
9346,-7.812500
9347,-5.859375
9348,-7.812500
9349,-5.859375
9350,-7.812500
9351,-7.812500
9352,-3.906250
9353,-7.812500
9354,-5.859375
9355,-7.812500
9356,-9.765625
9357,-7.812500
9358,-7.812500
9359,-5.859375
9360,-7.812500
9361,-5.859375
9362,-7.812500
9363,-9.765625
9364,-7.812500
9365,-7.812500
9366,-5.859375
9367,-5.859375
9368,-7.812500
9369,-7.812500
9370,-9.765625
9371,-7.812500
9372,-3.906250
9373,-9.765625
9374,-3.906250
9375,-7.812500
9376,-7.812500
9377,-7.812500
9378,-5.859375
9379,-5.859375
9380,-9.765625
9381,-5.859375
9382,-9.765625
9383,-7.812500
9384,-3.906250
9385,-9.765625
9386,-7.812500
9387,-7.812500
9388,-7.812500
9389,-9.765625
9390,-5.859375
9391,-7.812500
9392,-7.812500
9393,-5.859375
9394,-9.765625
9395,-5.859375
9396,-5.859375
9397,-9.765625
9398,-7.812500
9399,-9.765625
9400,-5.859375
9401,-9.765625
9402,-7.812500
9403,-7.812500
9404,-9.765625
9405,-9.765625
9406,-9.765625
9407,-5.859375
9408,-9.765625
9409,-7.812500
9410,-9.765625
9411,-9.765625
9412,-9.765625
9413,-15.625000
9414,-9.765625
9415,-9.765625
9416,-7.812500
9417,-9.765625
9418,-9.765625
9419,-7.812500
9420,-9.765625
9421,-9.765625
9422,-9.765625
9423,-7.812500
9424,-7.812500
9425,-9.765625
9426,-7.812500
9427,-9.765625
9428,-9.765625
9429,-9.765625
9430,-9.765625
9431,-7.812500
9432,-7.812500
9433,-9.765625
9434,-7.812500
9435,-9.765625
9436,-7.812500
9437,-13.671875
9438,-9.765625
9439,-9.765625
9440,-9.765625
9441,-7.812500
9442,-9.765625
9443,-7.812500
9444,-9.765625
9445,-9.765625
9446,-9.765625
9447,-5.859375
9448,-9.765625
9449,-9.765625
9450,-9.765625
9451,-9.765625
9452,-7.812500
9453,-11.718750
9454,-9.765625
9455,-9.765625
9456,-9.765625
9457,-7.812500
9458,-9.765625
9459,-5.859375
9460,-9.765625
9461,-9.765625
9462,-9.765625
9463,-13.671875
9464,-9.765625
9465,-11.718750
9466,-9.765625
9467,-15.625000
9468,-13.671875
9469,-11.718750
9470,-9.765625
9471,-13.671875
9472,-9.765625
9473,-11.718750
9474,-9.765625
9475,-9.765625
9476,-13.671875
9477,-13.671875
9478,-13.671875
9479,-15.625000
9480,-13.671875
9481,-15.625000
9482,-13.671875
9483,-15.625000
9484,-13.671875
9485,-15.625000
9486,-15.625000
9487,-13.671875
9488,-17.578125
9489,-15.625000
9490,-17.578125
9491,-15.625000
9492,-17.578125
9493,-17.578125
9494,-17.578125
9495,-19.531250
9496,-21.484375
9497,-21.484375
9498,-19.531250
9499,-21.484375
9500,-19.531250
9501,-19.531250
9502,-21.484375
9503,-21.484375
9504,-23.437500
9505,-23.437500
9506,-25.390625
9507,-25.390625
9508,-27.343750
9509,-29.296875
9510,-29.296875
9511,-29.296875
9512,-29.296875
9513,-31.250000
9514,-33.203125
9515,-33.203125
9516,-37.109375
9517,-39.062500
9518,-37.109375
9519,-41.015625
9520,-41.015625
9521,-41.015625
9522,-44.921875
9523,-44.921875
9524,-46.875000
9525,-41.015625
9526,-44.921875
9527,-48.828125
9528,-48.828125
9529,-50.781250
9530,-48.828125
9531,-50.781250
9532,-52.734375
9533,-56.640625
9534,-54.687500
9535,-50.781250
9536,-56.640625
9537,-54.687500
9538,-56.640625
9539,-54.687500
9540,-54.687500
9541,-56.640625
9542,-54.687500
9543,-60.546875
9544,-60.546875
9545,-60.546875
9546,-60.546875
9547,-60.546875
9548,-60.546875
9549,-60.546875
9550,-62.500000
9551,-60.546875
9552,-64.453125
9553,-64.453125
9554,-66.406250
9555,-66.406250
9556,-66.406250
9557,-64.453125
9558,-68.359375
9559,-66.406250
9560,-68.359375
9561,-64.453125
9562,-66.406250
9563,-66.406250
9564,-70.312500
9565,-70.312500
9566,-70.312500
9567,-72.265625
9568,-70.312500
9569,-72.265625
9570,-72.265625
9571,-70.312500
9572,-72.265625
9573,-72.265625
9574,-72.265625
9575,-72.265625
9576,-72.265625
9577,-72.265625
9578,-72.265625
9579,-72.265625
9580,-72.265625
9581,-72.265625
9582,-72.265625
9583,-72.265625
9584,-72.265625
9585,-72.265625
9586,-72.265625
9587,-78.125000
9588,-70.312500
9589,-72.265625
9590,-72.265625
9591,-70.312500
9592,-72.265625
9593,-72.265625
9594,-72.265625
9595,-72.265625
9596,-72.265625
9597,-72.265625
9598,-70.312500
9599,-72.265625
9600,-70.312500
9601,-72.265625
9602,-70.312500
9603,-72.265625
9604,-70.312500
9605,-72.265625
9606,-72.265625
9607,-70.312500
9608,-72.265625
9609,-70.312500
9610,-72.265625
9611,-72.265625
9612,-72.265625
9613,-72.265625
9614,-72.265625
9615,-72.265625
9616,-68.359375
9617,-72.265625
9618,-72.265625
9619,-70.312500
9620,-72.265625
9621,-72.265625
9622,-70.312500
9623,-70.312500
9624,-72.265625
9625,-72.265625
9626,-68.359375
9627,-72.265625
9628,-72.265625
9629,-72.265625
9630,-72.265625
9631,-68.359375
9632,-72.265625
9633,-70.312500
9634,-72.265625
9635,-70.312500
9636,-70.312500
9637,-72.265625
9638,-68.359375
9639,-72.265625
9640,-68.359375
9641,-76.171875
9642,-70.312500
9643,-68.359375
9644,-72.265625
9645,-64.453125
9646,-68.359375
9647,-68.359375
9648,-70.312500
9649,-70.312500
9650,-68.359375
9651,-70.312500
9652,-70.312500
9653,-68.359375
9654,-66.406250
9655,-70.312500
9656,-68.359375
9657,-66.406250
9658,-68.359375
9659,-64.453125
9660,-66.406250
9661,-68.359375
9662,-66.406250
9663,-68.359375
9664,-64.453125
9665,-66.406250
9666,-66.406250
9667,-66.406250
9668,-64.453125
9669,-64.453125
9670,-70.312500
9671,-62.500000
9672,-66.406250
9673,-64.453125
9674,-66.406250
9675,-64.453125
9676,-64.453125
9677,-64.453125
9678,-64.453125
9679,-62.500000
9680,-64.453125
9681,-60.546875
9682,-62.500000
9683,-60.546875
9684,-60.546875
9685,-60.546875
9686,-60.546875
9687,-56.640625
9688,-58.593750
9689,-56.640625
9690,-58.593750
9691,-56.640625
9692,-60.546875
9693,-56.640625
9694,-56.640625
9695,-52.734375
9696,-56.640625
9697,-54.687500
9698,-72.265625
9699,-52.734375
9700,-52.734375
9701,-50.781250
9702,-54.687500
9703,-41.015625
9704,-50.781250
9705,-52.734375
9706,-48.828125
9707,-54.687500
9708,-48.828125
9709,-48.828125
9710,-48.828125
9711,-44.921875
9712,-48.828125
9713,-44.921875
9714,-44.921875
9715,-41.015625
9716,-41.015625
9717,-41.015625
9718,-39.062500
9719,-39.062500
9720,-35.156250
9721,-35.156250
9722,-33.203125
9723,-33.203125
9724,-31.250000
9725,-29.296875
9726,-25.390625
9727,-25.390625
9728,-25.390625
9729,-23.437500
9730,-25.390625
9731,-21.484375
9732,-9.765625
9733,-19.531250
9734,-17.578125
9735,-19.531250
9736,-17.578125
9737,-17.578125
9738,-17.578125
9739,-17.578125
9740,-17.578125
9741,-15.625000
9742,-17.578125
9743,-15.625000
9744,-15.625000
9745,-15.625000
9746,-15.625000
9747,-15.625000
9748,-13.671875
9749,-15.625000
9750,-9.765625
9751,-17.578125
9752,-15.625000
9753,-13.671875
9754,-17.578125
9755,-13.671875
9756,-17.578125
9757,-13.671875
9758,-15.625000
9759,-17.578125
9760,-19.531250
9761,-23.437500
9762,-17.578125
9763,-21.484375
9764,-17.578125
9765,-19.531250
9766,-21.484375
9767,-19.531250
9768,-23.437500
9769,-19.531250
9770,-21.484375
9771,-23.437500
9772,-19.531250
9773,-23.437500
9774,-21.484375
9775,-23.437500
9776,-25.390625
9777,-25.390625
9778,-23.437500
9779,-23.437500
9780,-25.390625
9781,-19.531250
9782,-25.390625
9783,-23.437500
9784,-25.390625
9785,-25.390625
9786,-25.390625
9787,-25.390625
9788,-25.390625
9789,-52.734375
9790,-19.531250
9791,-29.296875
9792,-29.296875
9793,-29.296875
9794,-33.203125
9795,-29.296875
9796,-31.250000
9797,-29.296875
9798,-29.296875
9799,-33.203125
9800,-31.250000
9801,-31.250000
9802,-31.250000
9803,-33.203125
9804,-33.203125
9805,-29.296875
9806,-33.203125
9807,-31.250000
9808,-33.203125
9809,-29.296875
9810,-31.250000
9811,-33.203125
9812,-31.250000
9813,-33.203125
9814,-31.250000
9815,-33.203125
9816,-33.203125
9817,-31.250000
9818,-31.250000
9819,-31.250000
9820,-33.203125
9821,-31.250000
9822,-31.250000
9823,-33.203125
9824,-33.203125
9825,-33.203125
9826,-33.203125
9827,-31.250000
9828,-31.250000
9829,-31.250000
9830,-33.203125
9831,-31.250000
9832,-33.203125
9833,-33.203125
9834,-31.250000
9835,-31.250000
9836,-33.203125
9837,-33.203125
9838,-33.203125
9839,-31.250000
9840,-33.203125
9841,-33.203125
9842,-33.203125
9843,-33.203125
9844,-33.203125
9845,-33.203125
9846,-33.203125
9847,-33.203125
9848,-23.437500
9849,-35.156250
9850,-33.203125
9851,-35.156250
9852,-35.156250
9853,-33.203125
9854,-33.203125
9855,-35.156250
9856,-35.156250
9857,-35.156250
9858,-33.203125
9859,-35.156250
9860,-35.156250
9861,-33.203125
9862,-35.156250
9863,-33.203125
9864,-35.156250
9865,-35.156250
9866,-33.203125
9867,-33.203125
9868,-35.156250
9869,-33.203125
9870,-35.156250
9871,-35.156250
9872,-35.156250
9873,-33.203125
9874,-35.156250
9875,-35.156250
9876,-35.156250
9877,-19.531250
9878,-35.156250
9879,-33.203125
9880,-35.156250
9881,-33.203125
9882,-37.109375
9883,-35.156250
9884,-35.156250
9885,-37.109375
9886,-37.109375
9887,-37.109375
9888,-37.109375
9889,-37.109375
9890,-35.156250
9891,-52.734375
9892,-37.109375
9893,-37.109375
9894,-39.062500
9895,-39.062500
9896,-41.015625
9897,-41.015625
9898,-39.062500
9899,-35.156250
9900,-35.156250
9901,-39.062500
9902,-37.109375
9903,-41.015625
9904,-39.062500
9905,-39.062500
9906,-41.015625
9907,-39.062500
9908,-41.015625
9909,-39.062500
9910,-39.062500
9911,-41.015625
9912,-39.062500
9913,-39.062500
9914,-39.062500
9915,-39.062500
9916,-39.062500
9917,-37.109375
9918,-39.062500
9919,-39.062500
9920,-39.062500
9921,-37.109375
9922,-41.015625
9923,-37.109375
9924,-37.109375
9925,-37.109375
9926,-35.156250
9927,-33.203125
9928,-37.109375
9929,-35.156250
9930,-35.156250
9931,-35.156250
9932,-37.109375
9933,-35.156250
9934,-37.109375
9935,-35.156250
9936,-54.687500
9937,-37.109375
9938,-35.156250
9939,-35.156250
9940,-35.156250
9941,-35.156250
9942,-35.156250
9943,-35.156250
9944,-35.156250
9945,-37.109375
9946,-33.203125
9947,-37.109375
9948,-37.109375
9949,-35.156250
9950,-37.109375
9951,-33.203125
9952,-37.109375
9953,-33.203125
9954,-41.015625
9955,-33.203125
9956,-35.156250
9957,-41.015625
9958,-33.203125
9959,-39.062500
9960,-33.203125
9961,-35.156250
9962,-37.109375
9963,-35.156250
9964,-39.062500
9965,-33.203125
9966,-39.062500
9967,-29.296875
9968,-35.156250
9969,-37.109375
9970,-33.203125
9971,-35.156250
9972,-35.156250
9973,-37.109375
9974,-37.109375
9975,-35.156250
9976,-35.156250
9977,-37.109375
9978,-35.156250
9979,-37.109375
9980,-35.156250
9981,-33.203125
9982,-35.156250
9983,-37.109375
9984,-37.109375
9985,-35.156250
9986,-37.109375
9987,-35.156250
9988,-37.109375
9989,-37.109375
9990,-35.156250
9991,-39.062500
9992,-37.109375
9993,-44.921875
9994,-35.156250
9995,-37.109375
9996,-35.156250
9997,-35.156250
9998,-37.109375
9999,-35.156250
10000,-37.109375
