Channel              :,CH1
Frequency            :,  ?
Period               :,  ?
PK-PK                :,105.5mV
Probe attenuation    :,10X
Voltage per ADC value:,0.122070mV
Time interval        :,400.00000us

index,CH1_Voltage(mV)
1,0.000000
2,0.000000
3,0.000000
4,1.953125
5,1.953125
6,1.953125
7,1.953125
8,1.953125
9,1.953125
10,1.953125
11,1.953125
12,1.953125
13,5.859375
14,1.953125
15,1.953125
16,1.953125
17,0.000000
18,5.859375
19,-1.953125
20,5.859375
21,1.953125
22,-1.953125
23,3.906250
24,-1.953125
25,1.953125
26,-1.953125
27,1.953125
28,0.000000
29,0.000000
30,1.953125
31,0.000000
32,1.953125
33,0.000000
34,1.953125
35,3.906250
36,0.000000
37,1.953125
38,0.000000
39,0.000000
40,1.953125
41,-1.953125
42,0.000000
43,1.953125
44,1.953125
45,1.953125
46,1.953125
47,0.000000
48,1.953125
49,1.953125
50,1.953125
51,1.953125
52,1.953125
53,1.953125
54,1.953125
55,5.859375
56,1.953125
57,1.953125
58,1.953125
59,1.953125
60,1.953125
61,0.000000
62,1.953125
63,1.953125
64,1.953125
65,1.953125
66,1.953125
67,3.906250
68,0.000000
69,1.953125
70,-1.953125
71,1.953125
72,-1.953125
73,0.000000
74,1.953125
75,0.000000
76,1.953125
77,0.000000
78,0.000000
79,1.953125
80,0.000000
81,1.953125
82,0.000000
83,1.953125
84,1.953125
85,1.953125
86,0.000000
87,0.000000
88,1.953125
89,-3.906250
90,0.000000
91,1.953125
92,-1.953125
93,1.953125
94,1.953125
95,0.000000
96,3.906250
97,0.000000
98,3.906250
99,1.953125
100,0.000000
101,3.906250
102,1.953125
103,5.859375
104,1.953125
105,1.953125
106,1.953125
107,1.953125
108,1.953125
109,-1.953125
110,1.953125
111,1.953125
112,-1.953125
113,0.000000
114,1.953125
115,1.953125
116,1.953125
117,0.000000
118,7.812500
119,1.953125
120,5.859375
121,0.000000
122,1.953125
123,1.953125
124,1.953125
125,5.859375
126,0.000000
127,5.859375
128,1.953125
129,1.953125
130,1.953125
131,1.953125
132,5.859375
133,1.953125
134,1.953125
135,1.953125
136,5.859375
137,5.859375
138,0.000000
139,1.953125
140,1.953125
141,1.953125
142,5.859375
143,1.953125
144,5.859375
145,1.953125
146,1.953125
147,0.000000
148,5.859375
149,1.953125
150,1.953125
151,1.953125
152,1.953125
153,5.859375
154,3.906250
155,1.953125
156,5.859375
157,1.953125
158,5.859375
159,1.953125
160,1.953125
161,5.859375
162,1.953125
163,7.812500
164,-1.953125
165,5.859375
166,1.953125
167,1.953125
168,5.859375
169,0.000000
170,7.812500
171,1.953125
172,1.953125
173,1.953125
174,1.953125
175,1.953125
176,5.859375
177,5.859375
178,5.859375
179,1.953125
180,1.953125
181,5.859375
182,1.953125
183,5.859375
184,1.953125
185,1.953125
186,1.953125
187,1.953125
188,5.859375
189,0.000000
190,1.953125
191,5.859375
192,1.953125
193,5.859375
194,0.000000
195,1.953125
196,1.953125
197,1.953125
198,5.859375
199,1.953125
200,5.859375
201,1.953125
202,5.859375
203,5.859375
204,1.953125
205,5.859375
206,1.953125
207,1.953125
208,1.953125
209,1.953125
210,-3.906250
211,0.000000
212,1.953125
213,1.953125
214,1.953125
215,1.953125
216,1.953125
217,1.953125
218,5.859375
219,5.859375
220,1.953125
221,1.953125
222,1.953125
223,1.953125
224,3.906250
225,5.859375
226,1.953125
227,1.953125
228,1.953125
229,1.953125
230,1.953125
231,1.953125
232,5.859375
233,1.953125
234,1.953125
235,1.953125
236,1.953125
237,1.953125
238,1.953125
239,1.953125
240,1.953125
241,1.953125
242,3.906250
243,0.000000
244,0.000000
245,1.953125
246,0.000000
247,3.906250
248,-1.953125
249,3.906250
250,1.953125
251,5.859375
252,3.906250
253,1.953125
254,3.906250
255,1.953125
256,5.859375
257,1.953125
258,1.953125
259,5.859375
260,1.953125
261,5.859375
262,1.953125
263,1.953125
264,1.953125
265,1.953125
266,5.859375
267,1.953125
268,1.953125
269,5.859375
270,1.953125
271,1.953125
272,1.953125
273,1.953125
274,1.953125
275,1.953125
276,5.859375
277,3.906250
278,1.953125
279,1.953125
280,0.000000
281,3.906250
282,1.953125
283,3.906250
284,1.953125
285,0.000000
286,5.859375
287,1.953125
288,3.906250
289,1.953125
290,5.859375
291,1.953125
292,0.000000
293,5.859375
294,-3.906250
295,1.953125
296,1.953125
297,0.000000
298,1.953125
299,1.953125
300,1.953125
301,3.906250
302,1.953125
303,1.953125
304,1.953125
305,1.953125
306,3.906250
307,0.000000
308,3.906250
309,1.953125
310,1.953125
311,3.906250
312,1.953125
313,5.859375
314,1.953125
315,1.953125
316,1.953125
317,0.000000
318,5.859375
319,-1.953125
320,5.859375
321,1.953125
322,1.953125
323,5.859375
324,0.000000
325,1.953125
326,-1.953125
327,1.953125
328,1.953125
329,0.000000
330,1.953125
331,-1.953125
332,0.000000
333,1.953125
334,1.953125
335,1.953125
336,-1.953125
337,0.000000
338,0.000000
339,1.953125
340,0.000000
341,0.000000
342,0.000000
343,0.000000
344,1.953125
345,0.000000
346,0.000000
347,1.953125
348,-1.953125
349,0.000000
350,0.000000
351,0.000000
352,1.953125
353,-1.953125
354,-1.953125
355,-1.953125
356,-3.906250
357,-1.953125
358,-5.859375
359,-1.953125
360,-3.906250
361,0.000000
362,-5.859375
363,-7.812500
364,-5.859375
365,-5.859375
366,-9.765625
367,-7.812500
368,-9.765625
369,-7.812500
370,-13.671875
371,-9.765625
372,-9.765625
373,-9.765625
374,-9.765625
375,-11.718750
376,-9.765625
377,-11.718750
378,-9.765625
379,-11.718750
380,-13.671875
381,-9.765625
382,-13.671875
383,-9.765625
384,-9.765625
385,-13.671875
386,-9.765625
387,-15.625000
388,-9.765625
389,-13.671875
390,-11.718750
391,-9.765625
392,-13.671875
393,-9.765625
394,-13.671875
395,-13.671875
396,-11.718750
397,-9.765625
398,-11.718750
399,-13.671875
400,-9.765625
401,-13.671875
402,-9.765625
403,-13.671875
404,-9.765625
405,-9.765625
406,-13.671875
407,-9.765625
408,-17.578125
409,-9.765625
410,-11.718750
411,-13.671875
412,-9.765625
413,-13.671875
414,-9.765625
415,-13.671875
416,-11.718750
417,-11.718750
418,-13.671875
419,-11.718750
420,-13.671875
421,-9.765625
422,-13.671875
423,-13.671875
424,-13.671875
425,-9.765625
426,-13.671875
427,-9.765625
428,-19.531250
429,-9.765625
430,-9.765625
431,-13.671875
432,-9.765625
433,-13.671875
434,-9.765625
435,-9.765625
436,-13.671875
437,-9.765625
438,-7.812500
439,-9.765625
440,-9.765625
441,-9.765625
442,-5.859375
443,-9.765625
444,-7.812500
445,-5.859375
446,-7.812500
447,-5.859375
448,-9.765625
449,-5.859375
450,-7.812500
451,-7.812500
452,-3.906250
453,-7.812500
454,-3.906250
455,-5.859375
456,-3.906250
457,-5.859375
458,-7.812500
459,-5.859375
460,-7.812500
461,-7.812500
462,-3.906250
463,-5.859375
464,-5.859375
465,-5.859375
466,-7.812500
467,-1.953125
468,-7.812500
469,-3.906250
470,5.859375
471,-3.906250
472,-3.906250
473,-7.812500
474,-3.906250
475,-5.859375
476,-9.765625
477,-5.859375
478,-7.812500
479,-5.859375
480,-9.765625
481,-3.906250
482,-5.859375
483,-3.906250
484,-3.906250
485,-5.859375
486,-3.906250
487,-7.812500
488,-3.906250
489,-7.812500
490,-5.859375
491,-9.765625
492,-7.812500
493,-3.906250
494,-7.812500
495,-7.812500
496,-3.906250
497,-5.859375
498,-3.906250
499,-9.765625
500,-5.859375
501,-3.906250
502,-5.859375
503,-3.906250
504,-9.765625
505,-5.859375
506,-5.859375
507,-7.812500
508,-9.765625
509,-5.859375
510,-7.812500
511,-7.812500
512,-9.765625
513,-7.812500
514,-7.812500
515,-5.859375
516,-9.765625
517,-5.859375
518,-5.859375
519,-5.859375
520,-3.906250
521,-7.812500
522,-5.859375
523,-7.812500
524,-7.812500
525,-5.859375
526,-9.765625
527,-5.859375
528,-9.765625
529,-9.765625
530,-7.812500
531,-9.765625
532,-5.859375
533,-9.765625
534,-7.812500
535,-5.859375
536,-13.671875
537,-3.906250
538,-9.765625
539,-7.812500
540,-7.812500
541,-9.765625
542,-7.812500
543,-9.765625
544,-5.859375
545,-11.718750
546,-7.812500
547,-5.859375
548,-9.765625
549,-5.859375
550,-7.812500
551,-7.812500
552,-7.812500
553,-9.765625
554,-9.765625
555,-13.671875
556,-9.765625
557,-9.765625
558,-9.765625
559,-9.765625
560,-9.765625
561,-13.671875
562,-7.812500
563,-9.765625
564,-9.765625
565,-9.765625
566,-13.671875
567,-9.765625
568,-13.671875
569,-9.765625
570,-13.671875
571,-9.765625
572,-9.765625
573,-13.671875
574,-9.765625
575,-13.671875
576,-9.765625
577,-9.765625
578,-9.765625
579,-9.765625
580,-9.765625
581,5.859375
582,-13.671875
583,-19.531250
584,-9.765625
585,-11.718750
586,-9.765625
587,-9.765625
588,-9.765625
589,-9.765625
590,-9.765625
591,-9.765625
592,-9.765625
593,-9.765625
594,-9.765625
595,-9.765625
596,-9.765625
597,-7.812500
598,-9.765625
599,-7.812500
600,-9.765625
601,-3.906250
602,-9.765625
603,-5.859375
604,-3.906250
605,-7.812500
606,-3.906250
607,-11.718750
608,-1.953125
609,-3.906250
610,-3.906250
611,-1.953125
612,-3.906250
613,-1.953125
614,-3.906250
615,-3.906250
616,-1.953125
617,-1.953125
618,0.000000
619,-1.953125
620,-1.953125
621,-1.953125
622,-1.953125
623,-1.953125
624,-1.953125
625,0.000000
626,-1.953125
627,0.000000
628,1.953125
629,-1.953125
630,0.000000
631,0.000000
632,0.000000
633,1.953125
634,1.953125
635,-1.953125
636,0.000000
637,1.953125
638,1.953125
639,0.000000
640,1.953125
641,1.953125
642,5.859375
643,0.000000
644,0.000000
645,1.953125
646,0.000000
647,1.953125
648,0.000000
649,5.859375
650,1.953125
651,1.953125
652,1.953125
653,1.953125
654,1.953125
655,0.000000
656,0.000000
657,1.953125
658,0.000000
659,5.859375
660,0.000000
661,1.953125
662,1.953125
663,0.000000
664,1.953125
665,-1.953125
666,1.953125
667,0.000000
668,0.000000
669,3.906250
670,-1.953125
671,5.859375
672,1.953125
673,0.000000
674,1.953125
675,-1.953125
676,1.953125
677,1.953125
678,0.000000
679,1.953125
680,1.953125
681,1.953125
682,0.000000
683,1.953125
684,0.000000
685,0.000000
686,0.000000
687,0.000000
688,0.000000
689,1.953125
690,-1.953125
691,0.000000
692,1.953125
693,0.000000
694,1.953125
695,0.000000
696,1.953125
697,1.953125
698,-1.953125
699,3.906250
700,-1.953125
701,1.953125
702,1.953125
703,0.000000
704,0.000000
705,-1.953125
706,1.953125
707,1.953125
708,0.000000
709,1.953125
710,17.578125
711,5.859375
712,-1.953125
713,0.000000
714,0.000000
715,0.000000
716,1.953125
717,0.000000
718,1.953125
719,0.000000
720,0.000000
721,1.953125
722,0.000000
723,1.953125
724,-1.953125
725,1.953125
726,3.906250
727,0.000000
728,1.953125
729,1.953125
730,0.000000
731,1.953125
732,0.000000
733,0.000000
734,1.953125
735,1.953125
736,1.953125
737,-1.953125
738,0.000000
739,0.000000
740,0.000000
741,1.953125
742,-1.953125
743,0.000000
744,-1.953125
745,0.000000
746,0.000000
747,0.000000
748,1.953125
749,-1.953125
750,0.000000
751,1.953125
752,0.000000
753,1.953125
754,-1.953125
755,1.953125
756,-1.953125
757,0.000000
758,0.000000
759,1.953125
760,1.953125
761,-1.953125
762,0.000000
763,1.953125
764,1.953125
765,1.953125
766,-1.953125
767,0.000000
768,0.000000
769,0.000000
770,1.953125
771,1.953125
772,0.000000
773,0.000000
774,1.953125
775,0.000000
776,0.000000
777,17.578125
778,1.953125
779,0.000000
780,0.000000
781,0.000000
782,0.000000
783,0.000000
784,1.953125
785,1.953125
786,-1.953125
787,0.000000
788,9.765625
789,1.953125
790,0.000000
791,0.000000
792,0.000000
793,0.000000
794,1.953125
795,-1.953125
796,0.000000
797,1.953125
798,0.000000
799,0.000000
800,-1.953125
801,1.953125
802,1.953125
803,0.000000
804,1.953125
805,1.953125
806,-1.953125
807,0.000000
808,0.000000
809,3.906250
810,0.000000
811,1.953125
812,0.000000
813,-1.953125
814,0.000000
815,-1.953125
816,1.953125
817,-9.765625
818,-1.953125
819,1.953125
820,0.000000
821,-1.953125
822,-1.953125
823,-1.953125
824,1.953125
825,0.000000
826,1.953125
827,0.000000
828,-1.953125
829,-5.859375
830,0.000000
831,0.000000
832,-1.953125
833,1.953125
834,-1.953125
835,-1.953125
836,0.000000
837,-1.953125
838,1.953125
839,-1.953125
840,-3.906250
841,0.000000
842,-1.953125
843,1.953125
844,-1.953125
845,0.000000
846,1.953125
847,-1.953125
848,1.953125
849,-1.953125
850,5.859375
851,-1.953125
852,0.000000
853,0.000000
854,-1.953125
855,5.859375
856,0.000000
857,0.000000
858,1.953125
859,0.000000
860,1.953125
861,1.953125
862,1.953125
863,1.953125
864,-1.953125
865,1.953125
866,0.000000
867,1.953125
868,0.000000
869,0.000000
870,1.953125
871,-1.953125
872,1.953125
873,0.000000
874,1.953125
875,0.000000
876,-1.953125
877,5.859375
878,-1.953125
879,-1.953125
880,0.000000
881,0.000000
882,0.000000
883,-3.906250
884,-1.953125
885,0.000000
886,-1.953125
887,0.000000
888,-1.953125
889,5.859375
890,-1.953125
891,-1.953125
892,0.000000
893,-1.953125
894,-1.953125
895,-1.953125
896,-1.953125
897,0.000000
898,-1.953125
899,-1.953125
900,-1.953125
901,-1.953125
902,-3.906250
903,-1.953125
904,-1.953125
905,-1.953125
906,-1.953125
907,-3.906250
908,-1.953125
909,-3.906250
910,-1.953125
911,-1.953125
912,-3.906250
913,-1.953125
914,-3.906250
915,-1.953125
916,-1.953125
917,-3.906250
918,-3.906250
919,-7.812500
920,-1.953125
921,-3.906250
922,-15.625000
923,-7.812500
924,-3.906250
925,-5.859375
926,-3.906250
927,-1.953125
928,-5.859375
929,-3.906250
930,-7.812500
931,-3.906250
932,-5.859375
933,-3.906250
934,-3.906250
935,-7.812500
936,-1.953125
937,-3.906250
938,-3.906250
939,-7.812500
940,-5.859375
941,-3.906250
942,-7.812500
943,-3.906250
944,-7.812500
945,-5.859375
946,-5.859375
947,-7.812500
948,-5.859375
949,-7.812500
950,-3.906250
951,-3.906250
952,-5.859375
953,-3.906250
954,-3.906250
955,-3.906250
956,-1.953125
957,-5.859375
958,-3.906250
959,-3.906250
960,-1.953125
961,-1.953125
962,-3.906250
963,-1.953125
964,-1.953125
965,1.953125
966,-1.953125
967,-3.906250
968,-1.953125
969,-3.906250
970,0.000000
971,-1.953125
972,-3.906250
973,0.000000
974,-1.953125
975,-1.953125
976,-3.906250
977,-1.953125
978,-1.953125
979,-3.906250
980,-1.953125
981,-1.953125
982,-3.906250
983,-1.953125
984,-1.953125
985,-1.953125
986,-5.859375
987,-3.906250
988,-1.953125
989,1.953125
990,-1.953125
991,-3.906250
992,-1.953125
993,-3.906250
994,-1.953125
995,-1.953125
996,-3.906250
997,-1.953125
998,-3.906250
999,-3.906250
1000,-1.953125
1001,-1.953125
1002,-1.953125
1003,-1.953125
1004,-1.953125
1005,-1.953125
1006,0.000000
1007,-1.953125
1008,0.000000
1009,-1.953125
1010,-9.765625
1011,-3.906250
1012,0.000000
1013,-1.953125
1014,0.000000
1015,0.000000
1016,-1.953125
1017,1.953125
1018,-1.953125
1019,1.953125
1020,1.953125
1021,0.000000
1022,0.000000
1023,0.000000
1024,1.953125
1025,0.000000
1026,0.000000
1027,1.953125
1028,-1.953125
1029,0.000000
1030,-1.953125
1031,1.953125
1032,1.953125
1033,-1.953125
1034,1.953125
1035,1.953125
1036,0.000000
1037,1.953125
1038,-1.953125
1039,0.000000
1040,0.000000
1041,0.000000
1042,1.953125
1043,0.000000
1044,1.953125
1045,0.000000
1046,0.000000
1047,0.000000
1048,0.000000
1049,0.000000
1050,-1.953125
1051,0.000000
1052,1.953125
1053,0.000000
1054,1.953125
1055,-1.953125
1056,17.578125
1057,0.000000
1058,-1.953125
1059,-1.953125
1060,0.000000
1061,0.000000
1062,-3.906250
1063,-1.953125
1064,-1.953125
1065,-3.906250
1066,-1.953125
1067,-3.906250
1068,-3.906250
1069,-3.906250
1070,-5.859375
1071,-3.906250
1072,-5.859375
1073,-7.812500
1074,-5.859375
1075,-7.812500
1076,-7.812500
1077,1.953125
1078,-7.812500
1079,-9.765625
1080,-9.765625
1081,-9.765625
1082,-9.765625
1083,-9.765625
1084,-9.765625
1085,-15.625000
1086,-9.765625
1087,-15.625000
1088,-13.671875
1089,-13.671875
1090,-13.671875
1091,-13.671875
1092,-17.578125
1093,-19.531250
1094,-17.578125
1095,-15.625000
1096,-17.578125
1097,-17.578125
1098,-9.765625
1099,-19.531250
1100,-17.578125
1101,-17.578125
1102,-17.578125
1103,-17.578125
1104,-21.484375
1105,-19.531250
1106,-21.484375
1107,-19.531250
1108,-17.578125
1109,-21.484375
1110,-17.578125
1111,-21.484375
1112,-19.531250
1113,-21.484375
1114,-23.437500
1115,-25.390625
1116,-21.484375
1117,-19.531250
1118,-19.531250
1119,-17.578125
1120,-21.484375
1121,-23.437500
1122,-25.390625
1123,-23.437500
1124,-23.437500
1125,-23.437500
1126,-25.390625
1127,-21.484375
1128,-25.390625
1129,-25.390625
1130,-23.437500
1131,-25.390625
1132,-25.390625
1133,-27.343750
1134,-25.390625
1135,-23.437500
1136,-25.390625
1137,-25.390625
1138,-29.296875
1139,-29.296875
1140,-25.390625
1141,-27.343750
1142,-25.390625
1143,-29.296875
1144,-25.390625
1145,-29.296875
1146,-29.296875
1147,-29.296875
1148,-27.343750
1149,-29.296875
1150,-33.203125
1151,-25.390625
1152,-31.250000
1153,-25.390625
1154,-29.296875
1155,-29.296875
1156,-25.390625
1157,-31.250000
1158,-29.296875
1159,-33.203125
1160,-29.296875
1161,-29.296875
1162,-33.203125
1163,-29.296875
1164,-33.203125
1165,-33.203125
1166,-33.203125
1167,-37.109375
1168,-33.203125
1169,-37.109375
1170,-33.203125
1171,-37.109375
1172,-39.062500
1173,-37.109375
1174,-39.062500
1175,-41.015625
1176,-41.015625
1177,-41.015625
1178,-41.015625
1179,-41.015625
1180,-41.015625
1181,-42.968750
1182,-44.921875
1183,-44.921875
1184,-44.921875
1185,-44.921875
1186,-44.921875
1187,-48.828125
1188,-44.921875
1189,-48.828125
1190,-46.875000
1191,-46.875000
1192,-48.828125
1193,-48.828125
1194,-48.828125
1195,-44.921875
1196,-48.828125
1197,-46.875000
1198,-44.921875
1199,-48.828125
1200,-46.875000
1201,-46.875000
1202,-50.781250
1203,-46.875000
1204,-48.828125
1205,-44.921875
1206,-46.875000
1207,-50.781250
1208,-46.875000
1209,-48.828125
1210,-46.875000
1211,-48.828125
1212,-44.921875
1213,-46.875000
1214,-48.828125
1215,-46.875000
1216,-48.828125
1217,-46.875000
1218,-50.781250
1219,-48.828125
1220,-48.828125
1221,-50.781250
1222,-44.921875
1223,-48.828125
1224,-48.828125
1225,-48.828125
1226,-50.781250
1227,-48.828125
1228,-50.781250
1229,-48.828125
1230,-50.781250
1231,-48.828125
1232,-48.828125
1233,-52.734375
1234,-48.828125
1235,-48.828125
1236,-48.828125
1237,-46.875000
1238,-48.828125
1239,-48.828125
1240,-48.828125
1241,-48.828125
1242,-48.828125
1243,-50.781250
1244,-48.828125
1245,-46.875000
1246,-52.734375
1247,-48.828125
1248,-52.734375
1249,-48.828125
1250,-52.734375
1251,-48.828125
1252,-48.828125
1253,-50.781250
1254,-48.828125
1255,-50.781250
1256,-48.828125
1257,-48.828125
1258,-52.734375
1259,-48.828125
1260,-52.734375
1261,-48.828125
1262,-50.781250
1263,-48.828125
1264,-46.875000
1265,-54.687500
1266,-44.921875
1267,-50.781250
1268,-48.828125
1269,-50.781250
1270,-54.687500
1271,-48.828125
1272,-52.734375
1273,-50.781250
1274,-50.781250
1275,-48.828125
1276,-48.828125
1277,-48.828125
1278,-48.828125
1279,-52.734375
1280,-48.828125
1281,-50.781250
1282,-48.828125
1283,-48.828125
1284,-54.687500
1285,-52.734375
1286,-52.734375
1287,-41.015625
1288,-48.828125
1289,-48.828125
1290,-48.828125
1291,-48.828125
1292,-48.828125
1293,-48.828125
1294,-48.828125
1295,-60.546875
1296,-44.921875
1297,-46.875000
1298,-42.968750
1299,-46.875000
1300,-41.015625
1301,-41.015625
1302,-44.921875
1303,-39.062500
1304,-44.921875
1305,-41.015625
1306,-41.015625
1307,-39.062500
1308,-37.109375
1309,-37.109375
1310,-35.156250
1311,-35.156250
1312,-29.296875
1313,-29.296875
1314,-29.296875
1315,-25.390625
1316,-23.437500
1317,-19.531250
1318,-21.484375
1319,-21.484375
1320,-17.578125
1321,-17.578125
1322,-13.671875
1323,-13.671875
1324,-9.765625
1325,-9.765625
1326,-9.765625
1327,-5.859375
1328,-7.812500
1329,-5.859375
1330,-3.906250
1331,-1.953125
1332,-1.953125
1333,-1.953125
1334,-1.953125
1335,-1.953125
1336,-1.953125
1337,0.000000
1338,-1.953125
1339,1.953125
1340,-1.953125
1341,0.000000
1342,0.000000
1343,0.000000
1344,1.953125
1345,1.953125
1346,7.812500
1347,0.000000
1348,1.953125
1349,1.953125
1350,5.859375
1351,0.000000
1352,1.953125
1353,0.000000
1354,1.953125
1355,1.953125
1356,5.859375
1357,1.953125
1358,-1.953125
1359,7.812500
1360,0.000000
1361,1.953125
1362,0.000000
1363,-1.953125
1364,1.953125
1365,0.000000
1366,1.953125
1367,-1.953125
1368,-1.953125
1369,-1.953125
1370,0.000000
1371,-1.953125
1372,-3.906250
1373,0.000000
1374,-1.953125
1375,-1.953125
1376,-1.953125
1377,-1.953125
1378,-1.953125
1379,0.000000
1380,-5.859375
1381,-1.953125
1382,-1.953125
1383,-1.953125
1384,-1.953125
1385,-3.906250
1386,-1.953125
1387,-3.906250
1388,-1.953125
1389,-3.906250
1390,-1.953125
1391,-1.953125
1392,-3.906250
1393,0.000000
1394,-1.953125
1395,-1.953125
1396,-1.953125
1397,-1.953125
1398,-1.953125
1399,-1.953125
1400,1.953125
1401,-3.906250
1402,0.000000
1403,0.000000
1404,-3.906250
1405,0.000000
1406,-1.953125
1407,0.000000
1408,-13.671875
1409,-1.953125
1410,0.000000
1411,-1.953125
1412,1.953125
1413,0.000000
1414,0.000000
1415,-1.953125
1416,-1.953125
1417,1.953125
1418,-1.953125
1419,1.953125
1420,-1.953125
1421,1.953125
1422,0.000000
1423,0.000000
1424,-1.953125
1425,0.000000
1426,-1.953125
1427,1.953125
1428,0.000000
1429,0.000000
1430,1.953125
1431,0.000000
1432,0.000000
1433,0.000000
1434,0.000000
1435,0.000000
1436,-1.953125
1437,1.953125
1438,0.000000
1439,-1.953125
1440,0.000000
1441,0.000000
1442,1.953125
1443,-3.906250
1444,1.953125
1445,0.000000
1446,-1.953125
1447,1.953125
1448,-1.953125
1449,0.000000
1450,-3.906250
1451,1.953125
1452,0.000000
1453,0.000000
1454,-7.812500
1455,0.000000
1456,-1.953125
1457,1.953125
1458,0.000000
1459,1.953125
1460,0.000000
1461,1.953125
1462,1.953125
1463,1.953125
1464,1.953125
1465,0.000000
1466,0.000000
1467,1.953125
1468,0.000000
1469,1.953125
1470,0.000000
1471,0.000000
1472,1.953125
1473,0.000000
1474,-1.953125
1475,-1.953125
1476,0.000000
1477,0.000000
1478,0.000000
1479,0.000000
1480,-1.953125
1481,1.953125
1482,0.000000
1483,-1.953125
1484,0.000000
1485,-1.953125
1486,0.000000
1487,-1.953125
1488,0.000000
1489,0.000000
1490,-1.953125
1491,0.000000
1492,15.625000
1493,0.000000
1494,0.000000
1495,-1.953125
1496,-1.953125
1497,0.000000
1498,1.953125
1499,1.953125
1500,5.859375
1501,0.000000
1502,1.953125
1503,0.000000
1504,1.953125
1505,-1.953125
1506,1.953125
1507,0.000000
1508,-1.953125
1509,-1.953125
1510,1.953125
1511,1.953125
1512,0.000000
1513,1.953125
1514,0.000000
1515,0.000000
1516,0.000000
1517,1.953125
1518,1.953125
1519,-1.953125
1520,1.953125
1521,7.812500
1522,1.953125
1523,5.859375
1524,0.000000
1525,1.953125
1526,-1.953125
1527,0.000000
1528,1.953125
1529,0.000000
1530,5.859375
1531,-1.953125
1532,1.953125
1533,1.953125
1534,0.000000
1535,1.953125
1536,0.000000
1537,5.859375
1538,1.953125
1539,1.953125
1540,5.859375
1541,1.953125
1542,1.953125
1543,1.953125
1544,0.000000
1545,0.000000
1546,1.953125
1547,1.953125
1548,0.000000
1549,1.953125
1550,1.953125
1551,-1.953125
1552,-1.953125
1553,1.953125
1554,0.000000
1555,1.953125
1556,1.953125
1557,1.953125
1558,1.953125
1559,0.000000
1560,1.953125
1561,0.000000
1562,1.953125
1563,1.953125
1564,1.953125
1565,1.953125
1566,0.000000
1567,7.812500
1568,0.000000
1569,1.953125
1570,1.953125
1571,1.953125
1572,1.953125
1573,0.000000
1574,1.953125
1575,0.000000
1576,1.953125
1577,1.953125
1578,-1.953125
1579,1.953125
1580,0.000000
1581,1.953125
1582,1.953125
1583,1.953125
1584,1.953125
1585,-1.953125
1586,1.953125
1587,1.953125
1588,-1.953125
1589,1.953125
1590,0.000000
1591,1.953125
1592,0.000000
1593,5.859375
1594,1.953125
1595,0.000000
1596,1.953125
1597,-1.953125
1598,1.953125
1599,1.953125
1600,1.953125
1601,1.953125
1602,0.000000
1603,1.953125
1604,1.953125
1605,1.953125
1606,3.906250
1607,0.000000
1608,1.953125
1609,1.953125
1610,1.953125
1611,1.953125
1612,1.953125
1613,1.953125
1614,0.000000
1615,1.953125
1616,1.953125
1617,1.953125
1618,1.953125
1619,-1.953125
1620,1.953125
1621,1.953125
1622,-1.953125
1623,1.953125
1624,0.000000
1625,0.000000
1626,0.000000
1627,1.953125
1628,-1.953125
1629,0.000000
1630,1.953125
1631,-1.953125
1632,0.000000
1633,1.953125
1634,1.953125
1635,0.000000
1636,-1.953125
1637,1.953125
1638,1.953125
1639,0.000000
1640,1.953125
1641,-1.953125
1642,1.953125
1643,-1.953125
1644,21.484375
1645,-1.953125
1646,-1.953125
1647,0.000000
1648,-1.953125
1649,1.953125
1650,-1.953125
1651,5.859375
1652,0.000000
1653,5.859375
1654,1.953125
1655,3.906250
1656,1.953125
1657,-1.953125
1658,0.000000
1659,0.000000
1660,-1.953125
1661,1.953125
1662,-1.953125
1663,-1.953125
1664,-1.953125
1665,-3.906250
1666,-1.953125
1667,-3.906250
1668,-1.953125
1669,-3.906250
1670,-3.906250
1671,-3.906250
1672,-5.859375
1673,-7.812500
1674,-3.906250
1675,-3.906250
1676,-1.953125
1677,-5.859375
1678,-5.859375
1679,-3.906250
1680,-15.625000
1681,-5.859375
1682,-7.812500
1683,-5.859375
1684,-7.812500
1685,-9.765625
1686,-7.812500
1687,-9.765625
1688,-7.812500
1689,-7.812500
1690,-9.765625
1691,-7.812500
1692,-9.765625
1693,-9.765625
1694,-9.765625
1695,-9.765625
1696,-9.765625
1697,-9.765625
1698,-7.812500
1699,-11.718750
1700,-9.765625
1701,-7.812500
1702,-13.671875
1703,-7.812500
1704,-9.765625
1705,-9.765625
1706,-9.765625
1707,-9.765625
1708,-9.765625
1709,-11.718750
1710,-9.765625
1711,-9.765625
1712,-9.765625
1713,-9.765625
1714,-9.765625
1715,-9.765625
1716,-9.765625
1717,-9.765625
1718,-9.765625
1719,-11.718750
1720,-7.812500
1721,-9.765625
1722,-9.765625
1723,-9.765625
1724,-13.671875
1725,-9.765625
1726,-9.765625
1727,-9.765625
1728,-9.765625
1729,-9.765625
1730,-9.765625
1731,-11.718750
1732,-9.765625
1733,-9.765625
1734,-9.765625
1735,-9.765625
1736,-13.671875
1737,-9.765625
1738,-9.765625
1739,-9.765625
1740,-9.765625
1741,-9.765625
1742,-9.765625
1743,-9.765625
1744,-9.765625
1745,-9.765625
1746,-11.718750
1747,-11.718750
1748,-13.671875
1749,-9.765625
1750,-13.671875
1751,-9.765625
1752,-9.765625
1753,-13.671875
1754,-7.812500
1755,-9.765625
1756,-9.765625
1757,-9.765625
1758,-9.765625
1759,-9.765625
1760,-13.671875
1761,-9.765625
1762,-9.765625
1763,-9.765625
1764,-13.671875
1765,-9.765625
1766,-9.765625
1767,-9.765625
1768,-9.765625
1769,-9.765625
1770,-9.765625
1771,-9.765625
1772,-17.578125
1773,-9.765625
1774,-9.765625
1775,-9.765625
1776,-9.765625
1777,-13.671875
1778,-9.765625
1779,-7.812500
1780,-11.718750
1781,-9.765625
1782,-13.671875
1783,-9.765625
1784,-9.765625
1785,-9.765625
1786,-9.765625
1787,-13.671875
1788,-9.765625
1789,-9.765625
1790,-13.671875
1791,-9.765625
1792,-13.671875
1793,-11.718750
1794,-9.765625
1795,-13.671875
1796,-9.765625
1797,-9.765625
1798,-9.765625
1799,-13.671875
1800,-13.671875
1801,-9.765625
1802,-11.718750
1803,-13.671875
1804,-13.671875
1805,-17.578125
1806,-9.765625
1807,-11.718750
1808,-9.765625
1809,-13.671875
1810,-11.718750
1811,-9.765625
1812,-9.765625
1813,-9.765625
1814,-9.765625
1815,-9.765625
1816,-9.765625
1817,-9.765625
1818,-13.671875
1819,-9.765625
1820,-9.765625
1821,-9.765625
1822,-9.765625
1823,-9.765625
1824,-13.671875
1825,-9.765625
1826,-13.671875
1827,-9.765625
1828,-13.671875
1829,-13.671875
1830,-9.765625
1831,-13.671875
1832,-9.765625
1833,-9.765625
1834,-13.671875
1835,-9.765625
1836,-15.625000
1837,-9.765625
1838,-11.718750
1839,-11.718750
1840,-9.765625
1841,-13.671875
1842,-9.765625
1843,-13.671875
1844,-9.765625
1845,-9.765625
1846,-11.718750
1847,-9.765625
1848,-11.718750
1849,-9.765625
1850,-9.765625
1851,-9.765625
1852,-11.718750
1853,-9.765625
1854,-9.765625
1855,-9.765625
1856,-9.765625
1857,-9.765625
1858,-9.765625
1859,-9.765625
1860,-9.765625
1861,-7.812500
1862,-7.812500
1863,-9.765625
1864,-9.765625
1865,-9.765625
1866,-9.765625
1867,-9.765625
1868,-7.812500
1869,-5.859375
1870,-7.812500
1871,-7.812500
1872,-5.859375
1873,-7.812500
1874,-5.859375
1875,-7.812500
1876,-5.859375
1877,-3.906250
1878,-5.859375
1879,-1.953125
1880,-7.812500
1881,-3.906250
1882,-3.906250
1883,-5.859375
1884,-3.906250
1885,7.812500
1886,-3.906250
1887,-5.859375
1888,-3.906250
1889,-1.953125
1890,-3.906250
1891,-3.906250
1892,-3.906250
1893,-1.953125
1894,-1.953125
1895,-3.906250
1896,-1.953125
1897,-1.953125
1898,0.000000
1899,-1.953125
1900,-1.953125
1901,-3.906250
1902,-3.906250
1903,-1.953125
1904,-1.953125
1905,-1.953125
1906,-3.906250
1907,-1.953125
1908,-1.953125
1909,-1.953125
1910,-1.953125
1911,-1.953125
1912,-3.906250
1913,0.000000
1914,-1.953125
1915,0.000000
1916,-1.953125
1917,-1.953125
1918,-1.953125
1919,-3.906250
1920,0.000000
1921,-3.906250
1922,-1.953125
1923,1.953125
1924,-1.953125
1925,-1.953125
1926,-1.953125
1927,-7.812500
1928,-1.953125
1929,-1.953125
1930,-3.906250
1931,-3.906250
1932,-1.953125
1933,-1.953125
1934,-1.953125
1935,-1.953125
1936,0.000000
1937,-1.953125
1938,-1.953125
1939,-1.953125
1940,0.000000
1941,-1.953125
1942,-1.953125
1943,-1.953125
1944,-1.953125
1945,-1.953125
1946,-1.953125
1947,-1.953125
1948,3.906250
1949,-1.953125
1950,0.000000
1951,-1.953125
1952,-9.765625
1953,-3.906250
1954,-1.953125
1955,-1.953125
1956,-1.953125
1957,-3.906250
1958,-1.953125
1959,-1.953125
1960,0.000000
1961,-9.765625
1962,-1.953125
1963,-1.953125
1964,-1.953125
1965,-3.906250
1966,-1.953125
1967,-1.953125
1968,-1.953125
1969,-1.953125
1970,-1.953125
1971,-1.953125
1972,0.000000
1973,-1.953125
1974,-3.906250
1975,-1.953125
1976,-3.906250
1977,-1.953125
1978,-3.906250
1979,-3.906250
1980,-1.953125
1981,-3.906250
1982,0.000000
1983,-1.953125
1984,-3.906250
1985,-1.953125
1986,-3.906250
1987,-1.953125
1988,-5.859375
1989,-1.953125
1990,-1.953125
1991,-3.906250
1992,0.000000
1993,-3.906250
1994,5.859375
1995,-1.953125
1996,-3.906250
1997,-1.953125
1998,-3.906250
1999,-3.906250
2000,-3.906250
2001,-3.906250
2002,-1.953125
2003,-3.906250
2004,-1.953125
2005,-1.953125
2006,-1.953125
2007,-1.953125
2008,-3.906250
2009,-1.953125
2010,-1.953125
2011,-1.953125
2012,-1.953125
2013,-3.906250
2014,-3.906250
2015,-1.953125
2016,-1.953125
2017,-1.953125
2018,-1.953125
2019,-1.953125
2020,-3.906250
2021,-1.953125
2022,-3.906250
2023,-3.906250
2024,-3.906250
2025,-5.859375
2026,-3.906250
2027,-3.906250
2028,-3.906250
2029,-3.906250
2030,-7.812500
2031,-3.906250
2032,-5.859375
2033,-3.906250
2034,-1.953125
2035,-3.906250
2036,-7.812500
2037,-7.812500
2038,-1.953125
2039,-5.859375
2040,-5.859375
2041,-5.859375
2042,-7.812500
2043,-5.859375
2044,-9.765625
2045,-7.812500
2046,-7.812500
2047,-9.765625
2048,-7.812500
2049,-13.671875
2050,-9.765625
2051,-9.765625
2052,-13.671875
2053,-11.718750
2054,-17.578125
2055,-17.578125
2056,-17.578125
2057,-21.484375
2058,-17.578125
2059,-25.390625
2060,-21.484375
2061,-15.625000
2062,-25.390625
2063,-25.390625
2064,-27.343750
2065,-25.390625
2066,-29.296875
2067,-29.296875
2068,-39.062500
2069,-31.250000
2070,-33.203125
2071,-33.203125
2072,-33.203125
2073,-33.203125
2074,-33.203125
2075,-41.015625
2076,-37.109375
2077,-41.015625
2078,-39.062500
2079,-41.015625
2080,-44.921875
2081,-41.015625
2082,-35.156250
2083,-44.921875
2084,-44.921875
2085,-50.781250
2086,-46.875000
2087,-46.875000
2088,-50.781250
2089,-48.828125
2090,-48.828125
2091,-48.828125
2092,-48.828125
2093,-50.781250
2094,-48.828125
2095,-52.734375
2096,-56.640625
2097,-48.828125
2098,-54.687500
2099,-52.734375
2100,-54.687500
2101,-54.687500
2102,-54.687500
2103,-62.500000
2104,-56.640625
2105,-60.546875
2106,-56.640625
2107,-56.640625
2108,-60.546875
2109,-58.593750
2110,-60.546875
2111,-56.640625
2112,-62.500000
2113,-60.546875
2114,-60.546875
2115,-60.546875
2116,-62.500000
2117,-62.500000
2118,-60.546875
2119,-64.453125
2120,-62.500000
2121,-62.500000
2122,-64.453125
2123,-64.453125
2124,-64.453125
2125,-64.453125
2126,-64.453125
2127,-64.453125
2128,-64.453125
2129,-72.265625
2130,-66.406250
2131,-64.453125
2132,-64.453125
2133,-64.453125
2134,-68.359375
2135,-66.406250
2136,-68.359375
2137,-68.359375
2138,-64.453125
2139,-70.312500
2140,-68.359375
2141,-66.406250
2142,-68.359375
2143,-64.453125
2144,-70.312500
2145,-66.406250
2146,-70.312500
2147,-66.406250
2148,-68.359375
2149,-66.406250
2150,-68.359375
2151,-68.359375
2152,-66.406250
2153,-66.406250
2154,-66.406250
2155,-66.406250
2156,-68.359375
2157,-64.453125
2158,-68.359375
2159,-66.406250
2160,-68.359375
2161,-66.406250
2162,-62.500000
2163,-70.312500
2164,-66.406250
2165,-70.312500
2166,-68.359375
2167,-66.406250
2168,-68.359375
2169,-64.453125
2170,-68.359375
2171,-64.453125
2172,-66.406250
2173,-66.406250
2174,-66.406250
2175,-64.453125
2176,-64.453125
2177,-64.453125
2178,-64.453125
2179,-64.453125
2180,-64.453125
2181,-64.453125
2182,-64.453125
2183,-64.453125
2184,-64.453125
2185,-64.453125
2186,-64.453125
2187,-64.453125
2188,-66.406250
2189,-64.453125
2190,-64.453125
2191,-64.453125
2192,-62.500000
2193,-66.406250
2194,-64.453125
2195,-64.453125
2196,-64.453125
2197,-64.453125
2198,-64.453125
2199,-62.500000
2200,-68.359375
2201,-64.453125
2202,-64.453125
2203,-66.406250
2204,-62.500000
2205,-64.453125
2206,-64.453125
2207,-64.453125
2208,-66.406250
2209,-64.453125
2210,-64.453125
2211,-60.546875
2212,-62.500000
2213,-64.453125
2214,-62.500000
2215,-64.453125
2216,-62.500000
2217,-66.406250
2218,-44.921875
2219,-60.546875
2220,-62.500000
2221,-62.500000
2222,-64.453125
2223,-64.453125
2224,-62.500000
2225,-62.500000
2226,-62.500000
2227,-62.500000
2228,-62.500000
2229,-62.500000
2230,-66.406250
2231,-60.546875
2232,-64.453125
2233,-60.546875
2234,-62.500000
2235,-62.500000
2236,-60.546875
2237,-62.500000
2238,-60.546875
2239,-58.593750
2240,-56.640625
2241,-56.640625
2242,-56.640625
2243,-52.734375
2244,-52.734375
2245,-52.734375
2246,-46.875000
2247,-50.781250
2248,-46.875000
2249,-44.921875
2250,-44.921875
2251,-41.015625
2252,-42.968750
2253,-44.921875
2254,-41.015625
2255,-41.015625
2256,-39.062500
2257,-41.015625
2258,-39.062500
2259,-41.015625
2260,-37.109375
2261,-33.203125
2262,-35.156250
2263,-29.296875
2264,-31.250000
2265,-31.250000
2266,-25.390625
2267,-33.203125
2268,-27.343750
2269,-25.390625
2270,-25.390625
2271,-21.484375
2272,-23.437500
2273,-21.484375
2274,-19.531250
2275,-21.484375
2276,-17.578125
2277,-19.531250
2278,-17.578125
2279,-17.578125
2280,-19.531250
2281,-17.578125
2282,-15.625000
2283,-17.578125
2284,-13.671875
2285,-15.625000
2286,-13.671875
2287,-17.578125
2288,-13.671875
2289,-13.671875
2290,-15.625000
2291,-13.671875
2292,-15.625000
2293,-13.671875
2294,-15.625000
2295,-13.671875
2296,-17.578125
2297,-15.625000
2298,-9.765625
2299,-13.671875
2300,-11.718750
2301,-13.671875
2302,-15.625000
2303,-13.671875
2304,-15.625000
2305,-9.765625
2306,-15.625000
2307,-13.671875
2308,-11.718750
2309,-13.671875
2310,-13.671875
2311,-13.671875
2312,-9.765625
2313,-13.671875
2314,-13.671875
2315,-9.765625
2316,-13.671875
2317,-9.765625
2318,-11.718750
2319,-13.671875
2320,-11.718750
2321,-13.671875
2322,-9.765625
2323,-13.671875
2324,-11.718750
2325,-11.718750
2326,-13.671875
2327,-11.718750
2328,-13.671875
2329,-13.671875
2330,-13.671875
2331,-13.671875
2332,-9.765625
2333,-13.671875
2334,-9.765625
2335,-11.718750
2336,-13.671875
2337,-9.765625
2338,-9.765625
2339,-13.671875
2340,-9.765625
2341,-13.671875
2342,-9.765625
2343,-13.671875
2344,-9.765625
2345,-7.812500
2346,-9.765625
2347,-13.671875
2348,-13.671875
2349,-9.765625
2350,-13.671875
2351,-9.765625
2352,-9.765625
2353,-13.671875
2354,-9.765625
2355,-9.765625
2356,-9.765625
2357,-9.765625
2358,-11.718750
2359,-9.765625
2360,-9.765625
2361,-9.765625
2362,-9.765625
2363,1.953125
2364,-9.765625
2365,-13.671875
2366,-13.671875
2367,-9.765625
2368,-13.671875
2369,-9.765625
2370,-9.765625
2371,-9.765625
2372,-9.765625
2373,-9.765625
2374,-9.765625
2375,-9.765625
2376,-11.718750
2377,-9.765625
2378,-9.765625
2379,-9.765625
2380,-9.765625
2381,-9.765625
2382,-11.718750
2383,-9.765625
2384,0.000000
2385,-13.671875
2386,-9.765625
2387,-11.718750
2388,-9.765625
2389,-9.765625
2390,-9.765625
2391,-9.765625
2392,-13.671875
2393,-9.765625
2394,-13.671875
2395,-9.765625
2396,-9.765625
2397,-9.765625
2398,-9.765625
2399,-13.671875
2400,-7.812500
2401,-9.765625
2402,-9.765625
2403,-9.765625
2404,-9.765625
2405,-9.765625
2406,-13.671875
2407,-7.812500
2408,-9.765625
2409,-9.765625
2410,-9.765625
2411,-11.718750
2412,-9.765625
2413,-9.765625
2414,-5.859375
2415,-9.765625
2416,-11.718750
2417,-7.812500
2418,-9.765625
2419,-7.812500
2420,-9.765625
2421,-9.765625
2422,-11.718750
2423,-7.812500
2424,-9.765625
2425,-9.765625
2426,-9.765625
2427,-9.765625
2428,-7.812500
2429,-9.765625
2430,-7.812500
2431,-9.765625
2432,-5.859375
2433,-9.765625
2434,-9.765625
2435,-9.765625
2436,-9.765625
2437,-7.812500
2438,-9.765625
2439,-13.671875
2440,-7.812500
2441,-9.765625
2442,-9.765625
2443,-9.765625
2444,-9.765625
2445,-7.812500
2446,-9.765625
2447,-9.765625
2448,-9.765625
2449,-9.765625
2450,-9.765625
2451,-9.765625
2452,-9.765625
2453,-7.812500
2454,-9.765625
2455,-7.812500
2456,-9.765625
2457,-7.812500
2458,-9.765625
2459,-9.765625
2460,-5.859375
2461,-9.765625
2462,-7.812500
2463,-9.765625
2464,-7.812500
2465,-5.859375
2466,-9.765625
2467,-7.812500
2468,-9.765625
2469,-9.765625
2470,-9.765625
2471,-9.765625
2472,-9.765625
2473,-9.765625
2474,-5.859375
2475,-9.765625
2476,-9.765625
2477,-9.765625
2478,-9.765625
2479,-7.812500
2480,-5.859375
2481,-9.765625
2482,-7.812500
2483,-7.812500
2484,-9.765625
2485,-7.812500
2486,-9.765625
2487,-7.812500
2488,-9.765625
2489,-5.859375
2490,-9.765625
2491,-7.812500
2492,-7.812500
2493,-9.765625
2494,-5.859375
2495,-7.812500
2496,-3.906250
2497,-3.906250
2498,-11.718750
2499,-3.906250
2500,-7.812500
2501,-7.812500
2502,-7.812500
2503,-7.812500
2504,-5.859375
2505,-5.859375
2506,-3.906250
2507,-7.812500
2508,-5.859375
2509,-7.812500
2510,-5.859375
2511,-3.906250
2512,-3.906250
2513,-5.859375
2514,-5.859375
2515,-5.859375
2516,-5.859375
2517,-3.906250
2518,-5.859375
2519,-3.906250
2520,-3.906250
2521,-5.859375
2522,-1.953125
2523,-9.765625
2524,-1.953125
2525,-3.906250
2526,-1.953125
2527,-5.859375
2528,-3.906250
2529,-1.953125
2530,-7.812500
2531,-1.953125
2532,-3.906250
2533,-1.953125
2534,-1.953125
2535,-9.765625
2536,-1.953125
2537,-3.906250
2538,-1.953125
2539,-1.953125
2540,-1.953125
2541,-1.953125
2542,-3.906250
2543,-1.953125
2544,-3.906250
2545,-1.953125
2546,-1.953125
2547,-3.906250
2548,-1.953125
2549,-1.953125
2550,-1.953125
2551,-1.953125
2552,-3.906250
2553,-1.953125
2554,0.000000
2555,-1.953125
2556,1.953125
2557,-1.953125
2558,-1.953125
2559,0.000000
2560,-1.953125
2561,-1.953125
2562,-3.906250
2563,-1.953125
2564,-1.953125
2565,-1.953125
2566,0.000000
2567,-1.953125
2568,0.000000
2569,-1.953125
2570,0.000000
2571,-1.953125
2572,-1.953125
2573,0.000000
2574,-1.953125
2575,-1.953125
2576,-1.953125
2577,1.953125
2578,-1.953125
2579,-1.953125
2580,1.953125
2581,-3.906250
2582,-1.953125
2583,-1.953125
2584,-1.953125
2585,3.906250
2586,-1.953125
2587,0.000000
2588,-1.953125
2589,-1.953125
2590,-1.953125
2591,-1.953125
2592,1.953125
2593,-1.953125
2594,1.953125
2595,-5.859375
2596,-1.953125
2597,-1.953125
2598,-1.953125
2599,-1.953125
2600,0.000000
2601,-1.953125
2602,-1.953125
2603,-1.953125
2604,-1.953125
2605,0.000000
2606,-7.812500
2607,0.000000
2608,-1.953125
2609,-1.953125
2610,-1.953125
2611,-1.953125
2612,0.000000
2613,-1.953125
2614,0.000000
2615,0.000000
2616,-1.953125
2617,0.000000
2618,-1.953125
2619,-1.953125
2620,-1.953125
2621,0.000000
2622,0.000000
2623,-5.859375
2624,-1.953125
2625,-1.953125
2626,-1.953125
2627,-1.953125
2628,-1.953125
2629,-1.953125
2630,-1.953125
2631,5.859375
2632,-1.953125
2633,-1.953125
2634,0.000000
2635,-3.906250
2636,0.000000
2637,-1.953125
2638,-1.953125
2639,-1.953125
2640,-1.953125
2641,0.000000
2642,-1.953125
2643,-1.953125
2644,-1.953125
2645,-1.953125
2646,-1.953125
2647,-1.953125
2648,1.953125
2649,-3.906250
2650,0.000000
2651,-1.953125
2652,-1.953125
2653,0.000000
2654,-1.953125
2655,-1.953125
2656,-1.953125
2657,-3.906250
2658,0.000000
2659,-1.953125
2660,-1.953125
2661,-1.953125
2662,0.000000
2663,-1.953125
2664,-1.953125
2665,-1.953125
2666,-1.953125
2667,-1.953125
2668,-1.953125
2669,-1.953125
2670,-1.953125
2671,-1.953125
2672,-1.953125
2673,0.000000
2674,-3.906250
2675,0.000000
2676,-1.953125
2677,-1.953125
2678,0.000000
2679,-3.906250
2680,-1.953125
2681,-3.906250
2682,-1.953125
2683,-1.953125
2684,-1.953125
2685,0.000000
2686,-1.953125
2687,-1.953125
2688,-1.953125
2689,-1.953125
2690,-1.953125
2691,-1.953125
2692,-1.953125
2693,-3.906250
2694,-1.953125
2695,-1.953125
2696,-1.953125
2697,-1.953125
2698,-3.906250
2699,-3.906250
2700,-1.953125
2701,-3.906250
2702,-1.953125
2703,-3.906250
2704,-1.953125
2705,-3.906250
2706,1.953125
2707,-1.953125
2708,-3.906250
2709,-5.859375
2710,-1.953125
2711,-5.859375
2712,-3.906250
2713,-5.859375
2714,-3.906250
2715,-5.859375
2716,-7.812500
2717,-3.906250
2718,-7.812500
2719,-13.671875
2720,-5.859375
2721,-1.953125
2722,-5.859375
2723,-7.812500
2724,-3.906250
2725,-7.812500
2726,-5.859375
2727,-5.859375
2728,-5.859375
2729,-3.906250
2730,-7.812500
2731,-5.859375
2732,-7.812500
2733,-7.812500
2734,-5.859375
2735,-5.859375
2736,-3.906250
2737,-3.906250
2738,-5.859375
2739,-5.859375
2740,5.859375
2741,-5.859375
2742,-7.812500
2743,-5.859375
2744,-5.859375
2745,-5.859375
2746,-3.906250
2747,-7.812500
2748,-5.859375
2749,-5.859375
2750,-3.906250
2751,-7.812500
2752,-7.812500
2753,-7.812500
2754,-7.812500
2755,-5.859375
2756,-5.859375
2757,-3.906250
2758,-5.859375
2759,-5.859375
2760,-7.812500
2761,-5.859375
2762,-5.859375
2763,11.718750
2764,-5.859375
2765,-7.812500
2766,-3.906250
2767,-7.812500
2768,-3.906250
2769,-7.812500
2770,-5.859375
2771,-5.859375
2772,-5.859375
2773,-3.906250
2774,-3.906250
2775,-3.906250
2776,-5.859375
2777,-7.812500
2778,-1.953125
2779,-7.812500
2780,-5.859375
2781,-9.765625
2782,-3.906250
2783,-3.906250
2784,-5.859375
2785,-5.859375
2786,-7.812500
2787,-3.906250
2788,-5.859375
2789,-3.906250
2790,-3.906250
2791,-7.812500
2792,-1.953125
2793,-3.906250
2794,-3.906250
2795,-3.906250
2796,-3.906250
2797,-3.906250
2798,-1.953125
2799,-3.906250
2800,-1.953125
2801,-3.906250
2802,-1.953125
2803,-1.953125
2804,-1.953125
2805,-1.953125
2806,-1.953125
2807,0.000000
2808,-1.953125
2809,-1.953125
2810,0.000000
2811,-3.906250
2812,0.000000
2813,-3.906250
2814,-1.953125
2815,-1.953125
2816,-5.859375
2817,-1.953125
2818,-3.906250
2819,-1.953125
2820,-3.906250
2821,-3.906250
2822,-1.953125
2823,-3.906250
2824,0.000000
2825,-5.859375
2826,-1.953125
2827,-1.953125
2828,-9.765625
2829,-1.953125
2830,-3.906250
2831,-1.953125
2832,-1.953125
2833,-1.953125
2834,-3.906250
2835,-3.906250
2836,-1.953125
2837,-1.953125
2838,-3.906250
2839,-1.953125
2840,-5.859375
2841,-3.906250
2842,-1.953125
2843,-3.906250
2844,-1.953125
2845,-1.953125
2846,-1.953125
2847,0.000000
2848,-1.953125
2849,-1.953125
2850,-1.953125
2851,-1.953125
2852,-1.953125
2853,9.765625
2854,0.000000
2855,-3.906250
2856,-1.953125
2857,-1.953125
2858,-1.953125
2859,0.000000
2860,-1.953125
2861,-1.953125
2862,-1.953125
2863,0.000000
2864,-1.953125
2865,-1.953125
2866,0.000000
2867,-1.953125
2868,-1.953125
2869,-1.953125
2870,-1.953125
2871,0.000000
2872,-1.953125
2873,-1.953125
2874,-3.906250
2875,-1.953125
2876,-1.953125
2877,-1.953125
2878,-1.953125
2879,-1.953125
2880,-3.906250
2881,-1.953125
2882,-3.906250
2883,0.000000
2884,-1.953125
2885,-3.906250
2886,-1.953125
2887,-5.859375
2888,-1.953125
2889,-3.906250
2890,-1.953125
2891,-1.953125
2892,-1.953125
2893,-1.953125
2894,-9.765625
2895,1.953125
2896,-3.906250
2897,-5.859375
2898,-3.906250
2899,-5.859375
2900,-1.953125
2901,-1.953125
2902,-1.953125
2903,-3.906250
2904,-3.906250
2905,-3.906250
2906,-5.859375
2907,-1.953125
2908,-3.906250
2909,-3.906250
2910,-3.906250
2911,-3.906250
2912,-1.953125
2913,-3.906250
2914,-3.906250
2915,-1.953125
2916,-5.859375
2917,-3.906250
2918,-3.906250
2919,-5.859375
2920,-3.906250
2921,-7.812500
2922,-3.906250
2923,-1.953125
2924,-7.812500
2925,-3.906250
2926,-5.859375
2927,-5.859375
2928,-5.859375
2929,-7.812500
2930,-3.906250
2931,-7.812500
2932,-5.859375
2933,-7.812500
2934,-9.765625
2935,-7.812500
2936,-9.765625
2937,-9.765625
2938,-9.765625
2939,-9.765625
2940,-9.765625
2941,-13.671875
2942,-9.765625
2943,-13.671875
2944,-15.625000
2945,-13.671875
2946,-15.625000
2947,-15.625000
2948,-15.625000
2949,-17.578125
2950,-15.625000
2951,-19.531250
2952,-19.531250
2953,-19.531250
2954,-21.484375
2955,-21.484375
2956,-23.437500
2957,-21.484375
2958,-23.437500
2959,-21.484375
2960,-25.390625
2961,-29.296875
2962,-23.437500
2963,-27.343750
2964,-29.296875
2965,-29.296875
2966,-31.250000
2967,-29.296875
2968,-31.250000
2969,-33.203125
2970,-33.203125
2971,-33.203125
2972,-31.250000
2973,-35.156250
2974,-37.109375
2975,-39.062500
2976,-33.203125
2977,-35.156250
2978,-39.062500
2979,-37.109375
2980,-41.015625
2981,-35.156250
2982,-41.015625
2983,-41.015625
2984,-41.015625
2985,-44.921875
2986,-41.015625
2987,-41.015625
2988,-41.015625
2989,-44.921875
2990,-48.828125
2991,-44.921875
2992,-46.875000
2993,-44.921875
2994,-46.875000
2995,-46.875000
2996,-46.875000
2997,-50.781250
2998,-46.875000
2999,-48.828125
3000,-46.875000
3001,-48.828125
3002,-48.828125
3003,-48.828125
3004,-50.781250
3005,-48.828125
3006,-48.828125
3007,-50.781250
3008,-56.640625
3009,-48.828125
3010,-50.781250
3011,-48.828125
3012,-50.781250
3013,-46.875000
3014,-48.828125
3015,-48.828125
3016,-48.828125
3017,-48.828125
3018,-48.828125
3019,-50.781250
3020,-48.828125
3021,-48.828125
3022,-50.781250
3023,-48.828125
3024,-50.781250
3025,-48.828125
3026,-50.781250
3027,-48.828125
3028,-52.734375
3029,-56.640625
3030,-50.781250
3031,-50.781250
3032,-48.828125
3033,-48.828125
3034,-48.828125
3035,-48.828125
3036,-50.781250
3037,-48.828125
3038,-48.828125
3039,-48.828125
3040,-52.734375
3041,-50.781250
3042,-50.781250
3043,-56.640625
3044,-54.687500
3045,-56.640625
3046,-52.734375
3047,-54.687500
3048,-56.640625
3049,-56.640625
3050,-56.640625
3051,-56.640625
3052,-56.640625
3053,-56.640625
3054,-56.640625
3055,-60.546875
3056,-56.640625
3057,-58.593750
3058,-60.546875
3059,-58.593750
3060,-60.546875
3061,-56.640625
3062,-60.546875
3063,-56.640625
3064,-60.546875
3065,-62.500000
3066,-56.640625
3067,-60.546875
3068,-56.640625
3069,-58.593750
3070,-58.593750
3071,-74.218750
3072,-60.546875
3073,-58.593750
3074,-60.546875
3075,-58.593750
3076,-60.546875
3077,-60.546875
3078,-58.593750
3079,-60.546875
3080,-60.546875
3081,-60.546875
3082,-60.546875
3083,-60.546875
3084,-56.640625
3085,-60.546875
3086,-60.546875
3087,-60.546875
3088,-60.546875
3089,-60.546875
3090,-58.593750
3091,-56.640625
3092,-56.640625
3093,-60.546875
3094,-58.593750
3095,-56.640625
3096,-56.640625
3097,-56.640625
3098,-56.640625
3099,-56.640625
3100,-56.640625
3101,-54.687500
3102,-56.640625
3103,-52.734375
3104,-56.640625
3105,-52.734375
3106,-56.640625
3107,-54.687500
3108,-56.640625
3109,-54.687500
3110,-54.687500
3111,-56.640625
3112,-48.828125
3113,-60.546875
3114,-54.687500
3115,-54.687500
3116,-52.734375
3117,-50.781250
3118,-56.640625
3119,-48.828125
3120,-54.687500
3121,-52.734375
3122,-54.687500
3123,-50.781250
3124,-50.781250
3125,-52.734375
3126,-50.781250
3127,-52.734375
3128,-52.734375
3129,-52.734375
3130,-52.734375
3131,-48.828125
3132,-54.687500
3133,-48.828125
3134,-50.781250
3135,-50.781250
3136,-48.828125
3137,-54.687500
3138,-48.828125
3139,-50.781250
3140,-48.828125
3141,-52.734375
3142,-54.687500
3143,-48.828125
3144,-52.734375
3145,-50.781250
3146,-52.734375
3147,-48.828125
3148,-52.734375
3149,-52.734375
3150,-52.734375
3151,-56.640625
3152,-50.781250
3153,-52.734375
3154,-48.828125
3155,-52.734375
3156,-54.687500
3157,-48.828125
3158,-52.734375
3159,-56.640625
3160,-52.734375
3161,-52.734375
3162,-48.828125
3163,-52.734375
3164,-46.875000
3165,-50.781250
3166,-50.781250
3167,-48.828125
3168,-48.828125
3169,-48.828125
3170,-52.734375
3171,-48.828125
3172,-50.781250
3173,-48.828125
3174,-48.828125
3175,-48.828125
3176,-56.640625
3177,-48.828125
3178,-50.781250
3179,-48.828125
3180,-50.781250
3181,-52.734375
3182,-48.828125
3183,-48.828125
3184,-48.828125
3185,-48.828125
3186,-52.734375
3187,-48.828125
3188,-50.781250
3189,-48.828125
3190,-48.828125
3191,-50.781250
3192,-48.828125
3193,-52.734375
3194,-48.828125
3195,-52.734375
3196,-48.828125
3197,-54.687500
3198,-50.781250
3199,-48.828125
3200,-56.640625
3201,-48.828125
3202,-48.828125
3203,-52.734375
3204,-48.828125
3205,-52.734375
3206,-48.828125
3207,-52.734375
3208,-48.828125
3209,-46.875000
3210,-48.828125
3211,-41.015625
3212,-46.875000
3213,-41.015625
3214,-44.921875
3215,-44.921875
3216,-42.968750
3217,-44.921875
3218,-44.921875
3219,-41.015625
3220,-41.015625
3221,-41.015625
3222,-41.015625
3223,-41.015625
3224,-41.015625
3225,-41.015625
3226,-46.875000
3227,-44.921875
3228,-42.968750
3229,-41.015625
3230,-41.015625
3231,-41.015625
3232,-41.015625
3233,-39.062500
3234,-41.015625
3235,-41.015625
3236,-41.015625
3237,-41.015625
3238,-41.015625
3239,-41.015625
3240,-44.921875
3241,-41.015625
3242,-44.921875
3243,-41.015625
3244,-41.015625
3245,-41.015625
3246,-41.015625
3247,-41.015625
3248,-41.015625
3249,-44.921875
3250,-41.015625
3251,-44.921875
3252,-41.015625
3253,-41.015625
3254,-41.015625
3255,-41.015625
3256,-44.921875
3257,-41.015625
3258,-44.921875
3259,-42.968750
3260,-41.015625
3261,-44.921875
3262,-41.015625
3263,-44.921875
3264,-41.015625
3265,-44.921875
3266,-44.921875
3267,-41.015625
3268,-46.875000
3269,-41.015625
3270,-44.921875
3271,-44.921875
3272,-48.828125
3273,-42.968750
3274,-41.015625
3275,-44.921875
3276,-41.015625
3277,-44.921875
3278,-41.015625
3279,-42.968750
3280,-44.921875
3281,-41.015625
3282,-41.015625
3283,-41.015625
3284,-41.015625
3285,-44.921875
3286,-41.015625
3287,-41.015625
3288,-41.015625
3289,-44.921875
3290,-44.921875
3291,-44.921875
3292,-41.015625
3293,-41.015625
3294,-41.015625
3295,-41.015625
3296,-41.015625
3297,-44.921875
3298,-41.015625
3299,-39.062500
3300,-41.015625
3301,-41.015625
3302,-41.015625
3303,-41.015625
3304,-41.015625
3305,-41.015625
3306,-37.109375
3307,-41.015625
3308,-39.062500
3309,-39.062500
3310,-41.015625
3311,-33.203125
3312,-41.015625
3313,-37.109375
3314,-48.828125
3315,-37.109375
3316,-35.156250
3317,-35.156250
3318,-33.203125
3319,-41.015625
3320,-35.156250
3321,-35.156250
3322,-33.203125
3323,-31.250000
3324,-31.250000
3325,-29.296875
3326,-35.156250
3327,-29.296875
3328,-29.296875
3329,-29.296875
3330,-25.390625
3331,-25.390625
3332,-25.390625
3333,-25.390625
3334,-29.296875
3335,-29.296875
3336,-23.437500
3337,-19.531250
3338,-23.437500
3339,-19.531250
3340,-21.484375
3341,-21.484375
3342,-19.531250
3343,-19.531250
3344,-17.578125
3345,-17.578125
3346,-19.531250
3347,-15.625000
3348,-15.625000
3349,-15.625000
3350,-15.625000
3351,-17.578125
3352,-13.671875
3353,-13.671875
3354,-13.671875
3355,-13.671875
3356,-13.671875
3357,-9.765625
3358,-13.671875
3359,-9.765625
3360,-9.765625
3361,-9.765625
3362,-9.765625
3363,-9.765625
3364,-7.812500
3365,-9.765625
3366,-9.765625
3367,-9.765625
3368,-9.765625
3369,-7.812500
3370,-9.765625
3371,-9.765625
3372,-9.765625
3373,-13.671875
3374,-13.671875
3375,-9.765625
3376,-7.812500
3377,-9.765625
3378,-7.812500
3379,-9.765625
3380,-9.765625
3381,-1.953125
3382,-9.765625
3383,-7.812500
3384,-7.812500
3385,-9.765625
3386,-9.765625
3387,-9.765625
3388,-7.812500
3389,-9.765625
3390,-9.765625
3391,-7.812500
3392,-9.765625
3393,-7.812500
3394,-9.765625
3395,-5.859375
3396,-7.812500
3397,-9.765625
3398,-9.765625
3399,-9.765625
3400,-5.859375
3401,-9.765625
3402,-3.906250
3403,-9.765625
3404,-5.859375
3405,-9.765625
3406,-9.765625
3407,-3.906250
3408,-9.765625
3409,-5.859375
3410,9.765625
3411,-7.812500
3412,-7.812500
3413,-9.765625
3414,-3.906250
3415,-7.812500
3416,-5.859375
3417,-9.765625
3418,-7.812500
3419,-3.906250
3420,-9.765625
3421,-7.812500
3422,-5.859375
3423,-7.812500
3424,-7.812500
3425,-7.812500
3426,-7.812500
3427,-21.484375
3428,-9.765625
3429,-5.859375
3430,-5.859375
3431,-7.812500
3432,-5.859375
3433,-9.765625
3434,-7.812500
3435,-7.812500
3436,-7.812500
3437,-5.859375
3438,-9.765625
3439,-1.953125
3440,-9.765625
3441,-7.812500
3442,-3.906250
3443,-7.812500
3444,-3.906250
3445,-5.859375
3446,-5.859375
3447,-3.906250
3448,-9.765625
3449,-1.953125
3450,-5.859375
3451,-3.906250
3452,-5.859375
3453,-5.859375
3454,-1.953125
3455,-5.859375
3456,-3.906250
3457,-3.906250
3458,-3.906250
3459,-3.906250
3460,-5.859375
3461,-3.906250
3462,-5.859375
3463,-3.906250
3464,-3.906250
3465,-1.953125
3466,-3.906250
3467,-3.906250
3468,-1.953125
3469,5.859375
3470,-3.906250
3471,-3.906250
3472,-7.812500
3473,-3.906250
3474,-3.906250
3475,-3.906250
3476,-3.906250
3477,-5.859375
3478,-3.906250
3479,0.000000
3480,-5.859375
3481,-1.953125
3482,-3.906250
3483,-1.953125
3484,-1.953125
3485,0.000000
3486,-1.953125
3487,-5.859375
3488,-1.953125
3489,-3.906250
3490,-3.906250
3491,-3.906250
3492,-3.906250
3493,-1.953125
3494,-3.906250
3495,-1.953125
3496,-1.953125
3497,-3.906250
3498,-1.953125
3499,-3.906250
3500,-1.953125
3501,-3.906250
3502,-1.953125
3503,-1.953125
3504,-3.906250
3505,-1.953125
3506,-1.953125
3507,0.000000
3508,-1.953125
3509,-3.906250
3510,-1.953125
3511,-5.859375
3512,-1.953125
3513,-1.953125
3514,-1.953125
3515,-1.953125
3516,-1.953125
3517,-1.953125
3518,-3.906250
3519,-1.953125
3520,-3.906250
3521,-3.906250
3522,-1.953125
3523,-3.906250
3524,-3.906250
3525,-1.953125
3526,-1.953125
3527,-1.953125
3528,-1.953125
3529,-1.953125
3530,-1.953125
3531,-1.953125
3532,-1.953125
3533,-3.906250
3534,-1.953125
3535,-3.906250
3536,3.906250
3537,-1.953125
3538,-3.906250
3539,-1.953125
3540,-3.906250
3541,-1.953125
3542,-1.953125
3543,-1.953125
3544,-1.953125
3545,-3.906250
3546,-1.953125
3547,-1.953125
3548,-1.953125
3549,1.953125
3550,-1.953125
3551,0.000000
3552,-1.953125
3553,-3.906250
3554,-1.953125
3555,-1.953125
3556,0.000000
3557,-1.953125
3558,-1.953125
3559,-1.953125
3560,-1.953125
3561,-1.953125
3562,-3.906250
3563,1.953125
3564,-5.859375
3565,-1.953125
3566,-1.953125
3567,-3.906250
3568,0.000000
3569,-1.953125
3570,-1.953125
3571,0.000000
3572,-1.953125
3573,-1.953125
3574,0.000000
3575,5.859375
3576,-1.953125
3577,-1.953125
3578,-1.953125
3579,-3.906250
3580,0.000000
3581,-1.953125
3582,0.000000
3583,0.000000
3584,-1.953125
3585,-1.953125
3586,-1.953125
3587,-1.953125
3588,-1.953125
3589,-1.953125
3590,0.000000
3591,-1.953125
3592,0.000000
3593,-1.953125
3594,-1.953125
3595,-1.953125
3596,-3.906250
3597,0.000000
3598,-1.953125
3599,0.000000
3600,1.953125
3601,-1.953125
3602,-1.953125
3603,-1.953125
3604,0.000000
3605,-1.953125
3606,-1.953125
3607,0.000000
3608,-1.953125
3609,-1.953125
3610,0.000000
3611,-3.906250
3612,-1.953125
3613,-1.953125
3614,0.000000
3615,-1.953125
3616,0.000000
3617,-1.953125
3618,-1.953125
3619,0.000000
3620,-3.906250
3621,-1.953125
3622,-1.953125
3623,-1.953125
3624,-1.953125
3625,-1.953125
3626,-1.953125
3627,-1.953125
3628,-1.953125
3629,-1.953125
3630,-1.953125
3631,-1.953125
3632,-1.953125
3633,-1.953125
3634,-1.953125
3635,-3.906250
3636,-1.953125
3637,-1.953125
3638,-3.906250
3639,-3.906250
3640,-1.953125
3641,0.000000
3642,-3.906250
3643,0.000000
3644,-5.859375
3645,-5.859375
3646,-1.953125
3647,-3.906250
3648,-1.953125
3649,-3.906250
3650,0.000000
3651,-1.953125
3652,0.000000
3653,-1.953125
3654,-1.953125
3655,-1.953125
3656,-5.859375
3657,1.953125
3658,-1.953125
3659,-1.953125
3660,-1.953125
3661,-1.953125
3662,-1.953125
3663,-3.906250
3664,0.000000
3665,-1.953125
3666,5.859375
3667,-1.953125
3668,-5.859375
3669,0.000000
3670,-3.906250
3671,-1.953125
3672,-1.953125
3673,-1.953125
3674,-1.953125
3675,0.000000
3676,-1.953125
3677,-1.953125
3678,-3.906250
3679,-3.906250
3680,-3.906250
3681,-1.953125
3682,-1.953125
3683,-1.953125
3684,-1.953125
3685,-1.953125
3686,-1.953125
3687,-3.906250
3688,-3.906250
3689,-1.953125
3690,-1.953125
3691,-1.953125
3692,-3.906250
3693,-1.953125
3694,-1.953125
3695,-1.953125
3696,-1.953125
3697,-1.953125
3698,-1.953125
3699,-1.953125
3700,-1.953125
3701,-1.953125
3702,-3.906250
3703,-1.953125
3704,-1.953125
3705,-1.953125
3706,-1.953125
3707,-5.859375
3708,-1.953125
3709,-1.953125
3710,-1.953125
3711,-1.953125
3712,-3.906250
3713,1.953125
3714,0.000000
3715,-1.953125
3716,-1.953125
3717,-1.953125
3718,-1.953125
3719,-3.906250
3720,-1.953125
3721,-3.906250
3722,-1.953125
3723,-1.953125
3724,-3.906250
3725,-1.953125
3726,-3.906250
3727,-3.906250
3728,-1.953125
3729,-3.906250
3730,-1.953125
3731,-5.859375
3732,-1.953125
3733,-5.859375
3734,-5.859375
3735,-3.906250
3736,-7.812500
3737,-3.906250
3738,-7.812500
3739,-9.765625
3740,-5.859375
3741,-7.812500
3742,-5.859375
3743,-5.859375
3744,-3.906250
3745,-3.906250
3746,-5.859375
3747,-5.859375
3748,-5.859375
3749,-9.765625
3750,-5.859375
3751,-7.812500
3752,-5.859375
3753,-7.812500
3754,-15.625000
3755,-3.906250
3756,-9.765625
3757,-3.906250
3758,-9.765625
3759,-9.765625
3760,-7.812500
3761,-9.765625
3762,-7.812500
3763,-7.812500
3764,-7.812500
3765,-7.812500
3766,-9.765625
3767,-7.812500
3768,-9.765625
3769,-9.765625
3770,-9.765625
3771,-9.765625
3772,-9.765625
3773,-9.765625
3774,-9.765625
3775,-25.390625
3776,-9.765625
3777,-13.671875
3778,-13.671875
3779,-13.671875
3780,-15.625000
3781,-9.765625
3782,-13.671875
3783,-13.671875
3784,-9.765625
3785,-13.671875
3786,-13.671875
3787,-11.718750
3788,-9.765625
3789,-13.671875
3790,-13.671875
3791,-13.671875
3792,-17.578125
3793,-13.671875
3794,-13.671875
3795,-13.671875
3796,-13.671875
3797,-15.625000
3798,-15.625000
3799,-15.625000
3800,-13.671875
3801,-13.671875
3802,-15.625000
3803,-17.578125
3804,-13.671875
3805,-17.578125
3806,-15.625000
3807,-15.625000
3808,-13.671875
3809,-15.625000
3810,-13.671875
3811,-13.671875
3812,-15.625000
3813,-15.625000
3814,-13.671875
3815,-15.625000
3816,-13.671875
3817,-13.671875
3818,-13.671875
3819,-13.671875
3820,-13.671875
3821,-13.671875
3822,-13.671875
3823,-13.671875
3824,-13.671875
3825,-9.765625
3826,-13.671875
3827,-9.765625
3828,-11.718750
3829,-13.671875
3830,-9.765625
3831,-13.671875
3832,-9.765625
3833,-13.671875
3834,-13.671875
3835,-11.718750
3836,-13.671875
3837,-9.765625
3838,-13.671875
3839,-13.671875
3840,-9.765625
3841,-13.671875
3842,-9.765625
3843,-13.671875
3844,-13.671875
3845,-13.671875
3846,-13.671875
3847,-11.718750
3848,-11.718750
3849,-9.765625
3850,-13.671875
3851,-13.671875
3852,-9.765625
3853,-13.671875
3854,-9.765625
3855,-9.765625
3856,-11.718750
3857,-9.765625
3858,-11.718750
3859,-9.765625
3860,-9.765625
3861,-13.671875
3862,-9.765625
3863,-17.578125
3864,-9.765625
3865,-13.671875
3866,-11.718750
3867,-13.671875
3868,-13.671875
3869,-9.765625
3870,-11.718750
3871,-13.671875
3872,-15.625000
3873,-5.859375
3874,-13.671875
3875,-17.578125
3876,-13.671875
3877,-19.531250
3878,-17.578125
3879,-17.578125
3880,-17.578125
3881,-13.671875
3882,-21.484375
3883,-19.531250
3884,-19.531250
3885,-21.484375
3886,-19.531250
3887,-23.437500
3888,-19.531250
3889,-23.437500
3890,-23.437500
3891,-25.390625
3892,-25.390625
3893,-21.484375
3894,-25.390625
3895,-25.390625
3896,-27.343750
3897,-25.390625
3898,-25.390625
3899,-29.296875
3900,-29.296875
3901,-29.296875
3902,-27.343750
3903,-29.296875
3904,-31.250000
3905,-29.296875
3906,-31.250000
3907,-29.296875
3908,-33.203125
3909,-33.203125
3910,-33.203125
3911,-35.156250
3912,-33.203125
3913,-35.156250
3914,-33.203125
3915,-35.156250
3916,-35.156250
3917,-33.203125
3918,-37.109375
3919,-33.203125
3920,-41.015625
3921,-37.109375
3922,-37.109375
3923,-37.109375
3924,-37.109375
3925,-33.203125
3926,-37.109375
3927,-35.156250
3928,-37.109375
3929,-37.109375
3930,-37.109375
3931,-39.062500
3932,-35.156250
3933,-35.156250
3934,-37.109375
3935,-37.109375
3936,-39.062500
3937,-35.156250
3938,-39.062500
3939,-37.109375
3940,-39.062500
3941,-39.062500
3942,-35.156250
3943,-41.015625
3944,-37.109375
3945,-39.062500
3946,-41.015625
3947,-39.062500
3948,-48.828125
3949,-41.015625
3950,-39.062500
3951,-39.062500
3952,-39.062500
3953,-41.015625
3954,-41.015625
3955,-41.015625
3956,-41.015625
3957,-41.015625
3958,-41.015625
3959,-41.015625
3960,-41.015625
3961,-41.015625
3962,-41.015625
3963,-44.921875
3964,-44.921875
3965,-44.921875
3966,-44.921875
3967,-42.968750
3968,-44.921875
3969,-41.015625
3970,-48.828125
3971,-44.921875
3972,-50.781250
3973,-44.921875
3974,-41.015625
3975,-48.828125
3976,-41.015625
3977,-44.921875
3978,-44.921875
3979,-41.015625
3980,-46.875000
3981,-44.921875
3982,-46.875000
3983,-44.921875
3984,-44.921875
3985,-44.921875
3986,-44.921875
3987,-46.875000
3988,-44.921875
3989,-46.875000
3990,-46.875000
3991,-44.921875
3992,-48.828125
3993,-50.781250
3994,-48.828125
3995,-50.781250
3996,-48.828125
3997,-48.828125
3998,-50.781250
3999,-46.875000
4000,-50.781250
4001,-48.828125
4002,-48.828125
4003,-48.828125
4004,-48.828125
4005,-52.734375
4006,-48.828125
4007,-52.734375
4008,-52.734375
4009,-48.828125
4010,-54.687500
4011,-76.171875
4012,-54.687500
4013,-52.734375
4014,-37.109375
4015,-48.828125
4016,-52.734375
4017,-56.640625
4018,-48.828125
4019,-56.640625
4020,-54.687500
4021,-54.687500
4022,-56.640625
4023,-54.687500
4024,-58.593750
4025,-56.640625
4026,-54.687500
4027,-56.640625
4028,-56.640625
4029,-60.546875
4030,-56.640625
4031,-58.593750
4032,-56.640625
4033,-56.640625
4034,-60.546875
4035,-56.640625
4036,-60.546875
4037,-44.921875
4038,-60.546875
4039,-60.546875
4040,-60.546875
4041,-62.500000
4042,-60.546875
4043,-64.453125
4044,-60.546875
4045,-60.546875
4046,-64.453125
4047,-60.546875
4048,-60.546875
4049,-64.453125
4050,-60.546875
4051,-64.453125
4052,-62.500000
4053,-64.453125
4054,-60.546875
4055,-60.546875
4056,-64.453125
4057,-64.453125
4058,-64.453125
4059,-60.546875
4060,-66.406250
4061,-64.453125
4062,-60.546875
4063,-62.500000
4064,-60.546875
4065,-60.546875
4066,-66.406250
4067,-60.546875
4068,-64.453125
4069,-62.500000
4070,-62.500000
4071,-60.546875
4072,-62.500000
4073,-64.453125
4074,-60.546875
4075,-64.453125
4076,-64.453125
4077,-66.406250
4078,-62.500000
4079,-60.546875
4080,-64.453125
4081,-60.546875
4082,-64.453125
4083,-62.500000
4084,-60.546875
4085,-64.453125
4086,-62.500000
4087,-62.500000
4088,-64.453125
4089,-62.500000
4090,-64.453125
4091,-62.500000
4092,-64.453125
4093,-64.453125
4094,-62.500000
4095,-64.453125
4096,-64.453125
4097,-60.546875
4098,-64.453125
4099,-62.500000
4100,-64.453125
4101,-60.546875
4102,-64.453125
4103,-62.500000
4104,-62.500000
4105,-64.453125
4106,-60.546875
4107,-64.453125
4108,-60.546875
4109,-64.453125
4110,-64.453125
4111,-62.500000
4112,-64.453125
4113,-62.500000
4114,-64.453125
4115,-62.500000
4116,-62.500000
4117,-66.406250
4118,-64.453125
4119,-66.406250
4120,-64.453125
4121,-64.453125
4122,-64.453125
4123,-62.500000
4124,-64.453125
4125,-64.453125
4126,-64.453125
4127,-64.453125
4128,-64.453125
4129,-66.406250
4130,-62.500000
4131,-66.406250
4132,-64.453125
4133,-64.453125
4134,-64.453125
4135,-66.406250
4136,-64.453125
4137,-64.453125
4138,-64.453125
4139,-66.406250
4140,-64.453125
4141,-64.453125
4142,-64.453125
4143,-64.453125
4144,-64.453125
4145,-60.546875
4146,-64.453125
4147,-60.546875
4148,-62.500000
4149,-60.546875
4150,-62.500000
4151,-62.500000
4152,-60.546875
4153,-60.546875
4154,-56.640625
4155,-60.546875
4156,-56.640625
4157,-56.640625
4158,-58.593750
4159,-56.640625
4160,-60.546875
4161,-56.640625
4162,-56.640625
4163,-58.593750
4164,-54.687500
4165,-60.546875
4166,-56.640625
4167,-58.593750
4168,-56.640625
4169,-56.640625
4170,-56.640625
4171,-52.734375
4172,-60.546875
4173,-54.687500
4174,-52.734375
4175,-56.640625
4176,-56.640625
4177,-56.640625
4178,-56.640625
4179,-56.640625
4180,-56.640625
4181,-54.687500
4182,-56.640625
4183,-54.687500
4184,-54.687500
4185,-56.640625
4186,-52.734375
4187,-56.640625
4188,-54.687500
4189,-54.687500
4190,-56.640625
4191,-52.734375
4192,-56.640625
4193,-54.687500
4194,-56.640625
4195,-54.687500
4196,-56.640625
4197,-56.640625
4198,-52.734375
4199,-54.687500
4200,-54.687500
4201,-56.640625
4202,-54.687500
4203,-54.687500
4204,-54.687500
4205,-56.640625
4206,-48.828125
4207,-54.687500
4208,-54.687500
4209,-52.734375
4210,-52.734375
4211,-54.687500
4212,-54.687500
4213,-54.687500
4214,-52.734375
4215,-52.734375
4216,-54.687500
4217,-52.734375
4218,-50.781250
4219,-50.781250
4220,-50.781250
4221,-54.687500
4222,-52.734375
4223,-50.781250
4224,-50.781250
4225,-50.781250
4226,-50.781250
4227,-50.781250
4228,-52.734375
4229,-48.828125
4230,-54.687500
4231,-52.734375
4232,-56.640625
4233,-52.734375
4234,-48.828125
4235,-52.734375
4236,-48.828125
4237,-50.781250
4238,-48.828125
4239,-48.828125
4240,-50.781250
4241,-50.781250
4242,-50.781250
4243,-50.781250
4244,-48.828125
4245,-52.734375
4246,-50.781250
4247,-50.781250
4248,-52.734375
4249,-52.734375
4250,-50.781250
4251,-48.828125
4252,-48.828125
4253,-46.875000
4254,-42.968750
4255,-46.875000
4256,-44.921875
4257,-46.875000
4258,-46.875000
4259,-44.921875
4260,-44.921875
4261,-39.062500
4262,-39.062500
4263,-37.109375
4264,-39.062500
4265,-35.156250
4266,-37.109375
4267,-35.156250
4268,-35.156250
4269,-33.203125
4270,-29.296875
4271,-31.250000
4272,-33.203125
4273,-31.250000
4274,-31.250000
4275,-33.203125
4276,-33.203125
4277,-31.250000
4278,-23.437500
4279,-33.203125
4280,-33.203125
4281,-35.156250
4282,-33.203125
4283,-35.156250
4284,-33.203125
4285,-33.203125
4286,-35.156250
4287,-33.203125
4288,-39.062500
4289,-37.109375
4290,-37.109375
4291,-37.109375
4292,-39.062500
4293,-39.062500
4294,-37.109375
4295,-41.015625
4296,-41.015625
4297,-41.015625
4298,-41.015625
4299,-41.015625
4300,-41.015625
4301,-41.015625
4302,-41.015625
4303,-41.015625
4304,-39.062500
4305,-41.015625
4306,-39.062500
4307,-41.015625
4308,-39.062500
4309,-41.015625
4310,-41.015625
4311,-41.015625
4312,-41.015625
4313,-39.062500
4314,-41.015625
4315,-39.062500
4316,-41.015625
4317,-41.015625
4318,-41.015625
4319,-44.921875
4320,-42.968750
4321,-41.015625
4322,-41.015625
4323,-41.015625
4324,-44.921875
4325,-41.015625
4326,-41.015625
4327,-41.015625
4328,-41.015625
4329,-44.921875
4330,-41.015625
4331,-42.968750
4332,-41.015625
4333,-44.921875
4334,-44.921875
4335,-41.015625
4336,-44.921875
4337,-41.015625
4338,-44.921875
4339,-44.921875
4340,-44.921875
4341,-44.921875
4342,-41.015625
4343,-41.015625
4344,-41.015625
4345,-41.015625
4346,-41.015625
4347,-41.015625
4348,-41.015625
4349,-41.015625
4350,-41.015625
4351,-44.921875
4352,-41.015625
4353,-41.015625
4354,-41.015625
4355,-37.109375
4356,-41.015625
4357,-35.156250
4358,-37.109375
4359,-39.062500
4360,-37.109375
4361,-37.109375
4362,-33.203125
4363,-39.062500
4364,-35.156250
4365,-37.109375
4366,-33.203125
4367,-35.156250
4368,-37.109375
4369,-33.203125
4370,-29.296875
4371,-31.250000
4372,-35.156250
4373,-33.203125
4374,-33.203125
4375,-35.156250
4376,-33.203125
4377,-35.156250
4378,-33.203125
4379,-31.250000
4380,-33.203125
4381,-31.250000
4382,-33.203125
4383,-31.250000
4384,-31.250000
4385,-33.203125
4386,-31.250000
4387,-31.250000
4388,-31.250000
4389,-33.203125
4390,-25.390625
4391,-27.343750
4392,-31.250000
4393,-29.296875
4394,-31.250000
4395,-25.390625
4396,-29.296875
4397,-29.296875
4398,-27.343750
4399,-29.296875
4400,-25.390625
4401,-29.296875
4402,-23.437500
4403,-29.296875
4404,-25.390625
4405,-25.390625
4406,-29.296875
4407,-25.390625
4408,-31.250000
4409,-25.390625
4410,-25.390625
4411,-25.390625
4412,-25.390625
4413,-25.390625
4414,-23.437500
4415,-29.296875
4416,-17.578125
4417,-23.437500
4418,-25.390625
4419,-25.390625
4420,-29.296875
4421,-23.437500
4422,-25.390625
4423,-25.390625
4424,-25.390625
4425,-23.437500
4426,-23.437500
4427,-21.484375
4428,-25.390625
4429,-23.437500
4430,-21.484375
4431,-25.390625
4432,-21.484375
4433,-25.390625
4434,-21.484375
4435,-23.437500
4436,-21.484375
4437,-13.671875
4438,-23.437500
4439,-21.484375
4440,-23.437500
4441,-21.484375
4442,-19.531250
4443,-23.437500
4444,-17.578125
4445,-21.484375
4446,-21.484375
4447,-19.531250
4448,-19.531250
4449,-17.578125
4450,-19.531250
4451,-17.578125
4452,-17.578125
4453,-17.578125
4454,-17.578125
4455,-17.578125
4456,-15.625000
4457,-17.578125
4458,-15.625000
4459,-13.671875
4460,-17.578125
4461,-15.625000
4462,-11.718750
4463,-15.625000
4464,-13.671875
4465,-19.531250
4466,-15.625000
4467,-17.578125
4468,-13.671875
4469,-17.578125
4470,-15.625000
4471,-17.578125
4472,-17.578125
4473,-13.671875
4474,-15.625000
4475,-13.671875
4476,-15.625000
4477,-15.625000
4478,-15.625000
4479,-13.671875
4480,-13.671875
4481,-15.625000
4482,-9.765625
4483,-3.906250
4484,-15.625000
4485,-15.625000
4486,-13.671875
4487,-13.671875
4488,-11.718750
4489,-13.671875
4490,-13.671875
4491,-17.578125
4492,-13.671875
4493,-13.671875
4494,-15.625000
4495,-11.718750
4496,-13.671875
4497,-9.765625
4498,-13.671875
4499,-9.765625
4500,-9.765625
4501,-13.671875
4502,-9.765625
4503,-9.765625
4504,-9.765625
4505,-9.765625
4506,-9.765625
4507,-9.765625
4508,-9.765625
4509,-13.671875
4510,-9.765625
4511,-9.765625
4512,-9.765625
4513,-9.765625
4514,-9.765625
4515,-9.765625
4516,-9.765625
4517,-7.812500
4518,-9.765625
4519,-11.718750
4520,-9.765625
4521,-7.812500
4522,-9.765625
4523,-5.859375
4524,-5.859375
4525,-13.671875
4526,-9.765625
4527,-9.765625
4528,-9.765625
4529,-7.812500
4530,-9.765625
4531,-7.812500
4532,-9.765625
4533,-9.765625
4534,-9.765625
4535,-9.765625
4536,-7.812500
4537,-9.765625
4538,-9.765625
4539,-9.765625
4540,-9.765625
4541,-9.765625
4542,-9.765625
4543,-7.812500
4544,-9.765625
4545,-9.765625
4546,-9.765625
4547,-5.859375
4548,-7.812500
4549,-9.765625
4550,-5.859375
4551,-9.765625
4552,-5.859375
4553,-7.812500
4554,-7.812500
4555,-5.859375
4556,-9.765625
4557,-5.859375
4558,-7.812500
4559,-7.812500
4560,-5.859375
4561,-9.765625
4562,-5.859375
4563,-7.812500
4564,-5.859375
4565,-3.906250
4566,-7.812500
4567,-3.906250
4568,-9.765625
4569,-5.859375
4570,-9.765625
4571,3.906250
4572,-5.859375
4573,-5.859375
4574,-3.906250
4575,-7.812500
4576,-3.906250
4577,-7.812500
4578,-3.906250
4579,-3.906250
4580,-3.906250
4581,-3.906250
4582,-5.859375
4583,-3.906250
4584,-5.859375
4585,-5.859375
4586,-3.906250
4587,-5.859375
4588,-5.859375
4589,-3.906250
4590,-5.859375
4591,-3.906250
4592,-5.859375
4593,-1.953125
4594,-5.859375
4595,-1.953125
4596,-5.859375
4597,-5.859375
4598,-5.859375
4599,-5.859375
4600,-1.953125
4601,-5.859375
4602,-3.906250
4603,-3.906250
4604,-5.859375
4605,-3.906250
4606,-5.859375
4607,-1.953125
4608,-3.906250
4609,-1.953125
4610,-3.906250
4611,-3.906250
4612,-3.906250
4613,-3.906250
4614,-3.906250
4615,-1.953125
4616,-3.906250
4617,-5.859375
4618,-3.906250
4619,-3.906250
4620,-3.906250
4621,-3.906250
4622,-3.906250
4623,-3.906250
4624,-3.906250
4625,-5.859375
4626,-7.812500
4627,-3.906250
4628,-3.906250
4629,-3.906250
4630,-3.906250
4631,-5.859375
4632,-5.859375
4633,-5.859375
4634,-3.906250
4635,-5.859375
4636,-5.859375
4637,-5.859375
4638,-1.953125
4639,-3.906250
4640,-5.859375
4641,-3.906250
4642,-7.812500
4643,-1.953125
4644,-3.906250
4645,0.000000
4646,-3.906250
4647,-3.906250
4648,-5.859375
4649,-5.859375
4650,-3.906250
4651,-5.859375
4652,-3.906250
4653,-5.859375
4654,-5.859375
4655,-3.906250
4656,-7.812500
4657,-1.953125
4658,-5.859375
4659,-5.859375
4660,-3.906250
4661,-7.812500
4662,-3.906250
4663,-5.859375
4664,-7.812500
4665,-5.859375
4666,-5.859375
4667,-3.906250
4668,-5.859375
4669,-3.906250
4670,-3.906250
4671,-3.906250
4672,-5.859375
4673,-5.859375
4674,-5.859375
4675,-3.906250
4676,-7.812500
4677,-5.859375
4678,-5.859375
4679,-3.906250
4680,-5.859375
4681,-5.859375
4682,-3.906250
4683,-5.859375
4684,-5.859375
4685,-3.906250
4686,-9.765625
4687,-5.859375
4688,-9.765625
4689,-1.953125
4690,-5.859375
4691,-3.906250
4692,-5.859375
4693,-5.859375
4694,-3.906250
4695,-5.859375
4696,-3.906250
4697,-3.906250
4698,-1.953125
4699,-3.906250
4700,-5.859375
4701,-1.953125
4702,-3.906250
4703,-5.859375
4704,-3.906250
4705,1.953125
4706,-3.906250
4707,-5.859375
4708,-1.953125
4709,-3.906250
4710,-3.906250
4711,-3.906250
4712,-3.906250
4713,-3.906250
4714,-3.906250
4715,-1.953125
4716,-3.906250
4717,-5.859375
4718,-1.953125
4719,-1.953125
4720,-3.906250
4721,-5.859375
4722,-5.859375
4723,-3.906250
4724,-3.906250
4725,-1.953125
4726,-7.812500
4727,-5.859375
4728,-1.953125
4729,-3.906250
4730,-3.906250
4731,-3.906250
4732,-3.906250
4733,-5.859375
4734,-5.859375
4735,-5.859375
4736,-5.859375
4737,-5.859375
4738,-5.859375
4739,-5.859375
4740,-5.859375
4741,-5.859375
4742,-3.906250
4743,-5.859375
4744,-3.906250
4745,-3.906250
4746,-5.859375
4747,-9.765625
4748,-5.859375
4749,-5.859375
4750,-5.859375
4751,-5.859375
4752,-3.906250
4753,-7.812500
4754,-5.859375
4755,-3.906250
4756,-5.859375
4757,-5.859375
4758,-5.859375
4759,-5.859375
4760,-3.906250
4761,-5.859375
4762,-3.906250
4763,-9.765625
4764,-1.953125
4765,-3.906250
4766,-5.859375
4767,-5.859375
4768,-7.812500
4769,-3.906250
4770,-9.765625
4771,-5.859375
4772,-13.671875
4773,-7.812500
4774,-5.859375
4775,-7.812500
4776,-5.859375
4777,-7.812500
4778,-5.859375
4779,-7.812500
4780,-7.812500
4781,-7.812500
4782,-5.859375
4783,-3.906250
4784,-7.812500
4785,-7.812500
4786,-7.812500
4787,-9.765625
4788,-5.859375
4789,-9.765625
4790,-5.859375
4791,-7.812500
4792,-9.765625
4793,-9.765625
4794,-9.765625
4795,-7.812500
4796,-9.765625
4797,-7.812500
4798,-7.812500
4799,-9.765625
4800,-7.812500
4801,-9.765625
4802,-9.765625
4803,-9.765625
4804,-9.765625
4805,-9.765625
4806,-13.671875
4807,-9.765625
4808,-9.765625
4809,-9.765625
4810,-7.812500
4811,-11.718750
4812,-9.765625
4813,-11.718750
4814,-1.953125
4815,-13.671875
4816,-13.671875
4817,-13.671875
4818,-23.437500
4819,-13.671875
4820,-15.625000
4821,-15.625000
4822,-15.625000
4823,-17.578125
4824,-15.625000
4825,-17.578125
4826,-17.578125
4827,-19.531250
4828,-17.578125
4829,-17.578125
4830,-19.531250
4831,-17.578125
4832,-21.484375
4833,-17.578125
4834,-19.531250
4835,-19.531250
4836,-21.484375
4837,-21.484375
4838,-19.531250
4839,-5.859375
4840,-21.484375
4841,-23.437500
4842,-23.437500
4843,-23.437500
4844,-23.437500
4845,-23.437500
4846,-23.437500
4847,-23.437500
4848,-25.390625
4849,-25.390625
4850,-23.437500
4851,-25.390625
4852,-25.390625
4853,-23.437500
4854,-27.343750
4855,-23.437500
4856,-29.296875
4857,-25.390625
4858,-25.390625
4859,-25.390625
4860,-25.390625
4861,-27.343750
4862,-23.437500
4863,-33.203125
4864,-25.390625
4865,-25.390625
4866,-25.390625
4867,-25.390625
4868,-29.296875
4869,-29.296875
4870,-29.296875
4871,-29.296875
4872,-29.296875
4873,-29.296875
4874,-25.390625
4875,-31.250000
4876,-27.343750
4877,-33.203125
4878,-31.250000
4879,-31.250000
4880,-31.250000
4881,-29.296875
4882,-33.203125
4883,-29.296875
4884,-31.250000
4885,-31.250000
4886,-31.250000
4887,-33.203125
4888,-31.250000
4889,-33.203125
4890,-33.203125
4891,-31.250000
4892,-33.203125
4893,-31.250000
4894,-33.203125
4895,-33.203125
4896,-33.203125
4897,-33.203125
4898,-33.203125
4899,-33.203125
4900,-33.203125
4901,-35.156250
4902,-33.203125
4903,-33.203125
4904,-33.203125
4905,-33.203125
4906,-31.250000
4907,-33.203125
4908,-33.203125
4909,-33.203125
4910,-33.203125
4911,-37.109375
4912,-33.203125
4913,-37.109375
4914,-35.156250
4915,-35.156250
4916,-35.156250
4917,-33.203125
4918,-37.109375
4919,-35.156250
4920,-35.156250
4921,-37.109375
4922,-33.203125
4923,-37.109375
4924,-39.062500
4925,-31.250000
4926,-39.062500
4927,-37.109375
4928,-37.109375
4929,-41.015625
4930,-37.109375
4931,-41.015625
4932,-39.062500
4933,-39.062500
4934,-39.062500
4935,-39.062500
4936,-39.062500
4937,-37.109375
4938,-41.015625
4939,-39.062500
4940,-41.015625
4941,-41.015625
4942,-39.062500
4943,-41.015625
4944,-41.015625
4945,-42.968750
4946,-41.015625
4947,-41.015625
4948,-44.921875
4949,-41.015625
4950,-44.921875
4951,-41.015625
4952,-42.968750
4953,-44.921875
4954,-41.015625
4955,-44.921875
4956,-44.921875
4957,-44.921875
4958,-44.921875
4959,-41.015625
4960,-44.921875
4961,-29.296875
4962,-44.921875
4963,-44.921875
4964,-44.921875
4965,-44.921875
4966,-46.875000
4967,-44.921875
4968,-44.921875
4969,-44.921875
4970,-41.015625
4971,-46.875000
4972,-46.875000
4973,-44.921875
4974,-48.828125
4975,-46.875000
4976,-46.875000
4977,-48.828125
4978,-48.828125
4979,-48.828125
4980,-48.828125
4981,-48.828125
4982,-52.734375
4983,-48.828125
4984,-52.734375
4985,-52.734375
4986,-48.828125
4987,-54.687500
4988,-50.781250
4989,-54.687500
4990,-54.687500
4991,-54.687500
4992,-54.687500
4993,-56.640625
4994,-50.781250
4995,-52.734375
4996,-56.640625
4997,-54.687500
4998,-54.687500
4999,-58.593750
5000,-52.734375
5001,-64.453125
5002,-56.640625
5003,-54.687500
5004,-60.546875
5005,-54.687500
5006,-58.593750
5007,-56.640625
5008,-56.640625
5009,-60.546875
5010,-56.640625
5011,-60.546875
5012,-56.640625
5013,-56.640625
5014,-56.640625
5015,-58.593750
5016,-60.546875
5017,-60.546875
5018,-60.546875
5019,-60.546875
5020,-60.546875
5021,-60.546875
5022,-60.546875
5023,-64.453125
5024,-62.500000
5025,-62.500000
5026,-64.453125
5027,-62.500000
5028,-64.453125
5029,-62.500000
5030,-64.453125
5031,-64.453125
5032,-66.406250
5033,-62.500000
5034,-62.500000
5035,-64.453125
5036,-46.875000
5037,-62.500000
5038,-64.453125
5039,-62.500000
5040,-64.453125
5041,-64.453125
5042,-64.453125
5043,-64.453125
5044,-64.453125
5045,-64.453125
5046,-64.453125
5047,-64.453125
5048,-66.406250
5049,-64.453125
5050,-64.453125
5051,-64.453125
5052,-64.453125
5053,-66.406250
5054,-64.453125
5055,-66.406250
5056,-64.453125
5057,-66.406250
5058,-64.453125
5059,-64.453125
5060,-66.406250
5061,-64.453125
5062,-72.265625
5063,-64.453125
5064,-64.453125
5065,-66.406250
5066,-64.453125
5067,-64.453125
5068,-64.453125
5069,-66.406250
5070,-66.406250
5071,-66.406250
5072,-66.406250
5073,-66.406250
5074,-68.359375
5075,-64.453125
5076,-66.406250
5077,-64.453125
5078,-66.406250
5079,-66.406250
5080,-66.406250
5081,-66.406250
5082,-66.406250
5083,-66.406250
5084,-66.406250
5085,-64.453125
5086,-64.453125
5087,-64.453125
5088,-66.406250
5089,-64.453125
5090,-64.453125
5091,-66.406250
5092,-64.453125
5093,-66.406250
5094,-64.453125
5095,-64.453125
5096,-66.406250
5097,-66.406250
5098,-66.406250
5099,-64.453125
5100,-64.453125
5101,-64.453125
5102,-64.453125
5103,-72.265625
5104,-64.453125
5105,-64.453125
5106,-64.453125
5107,-64.453125
5108,-66.406250
5109,-64.453125
5110,-64.453125
5111,-64.453125
5112,-64.453125
5113,-64.453125
5114,-66.406250
5115,-64.453125
5116,-66.406250
5117,-66.406250
5118,-66.406250
5119,-66.406250
5120,-70.312500
5121,-66.406250
5122,-66.406250
5123,-68.359375
5124,-60.546875
5125,-70.312500
5126,-68.359375
5127,-68.359375
5128,-68.359375
5129,-66.406250
5130,-70.312500
5131,-68.359375
5132,-70.312500
5133,-68.359375
5134,-68.359375
5135,-70.312500
5136,-70.312500
5137,-70.312500
5138,-68.359375
5139,-70.312500
5140,-68.359375
5141,-66.406250
5142,-72.265625
5143,-68.359375
5144,-70.312500
5145,-72.265625
5146,-66.406250
5147,-68.359375
5148,-66.406250
5149,-64.453125
5150,-68.359375
5151,-70.312500
5152,-66.406250
5153,-72.265625
5154,-70.312500
5155,-66.406250
5156,-68.359375
5157,-66.406250
5158,-72.265625
5159,-68.359375
5160,-68.359375
5161,-72.265625
5162,-68.359375
5163,-72.265625
5164,-68.359375
5165,-72.265625
5166,-66.406250
5167,-72.265625
5168,-72.265625
5169,-70.312500
5170,-83.984375
5171,-68.359375
5172,-72.265625
5173,-66.406250
5174,-70.312500
5175,-70.312500
5176,-72.265625
5177,-70.312500
5178,-72.265625
5179,-72.265625
5180,-72.265625
5181,-72.265625
5182,-72.265625
5183,-72.265625
5184,-72.265625
5185,-72.265625
5186,-72.265625
5187,-72.265625
5188,-72.265625
5189,-72.265625
5190,-72.265625
5191,-68.359375
5192,-72.265625
5193,-72.265625
5194,-72.265625
5195,-72.265625
5196,-72.265625
5197,-72.265625
5198,-72.265625
5199,-72.265625
5200,-72.265625
5201,-70.312500
5202,-70.312500
5203,-72.265625
5204,-70.312500
5205,-72.265625
5206,-70.312500
5207,-70.312500
5208,-70.312500
5209,-68.359375
5210,-70.312500
5211,-68.359375
5212,-72.265625
5213,-70.312500
5214,-72.265625
5215,-70.312500
5216,-68.359375
5217,-68.359375
5218,-66.406250
5219,-68.359375
5220,-70.312500
5221,-68.359375
5222,-66.406250
5223,-66.406250
5224,-72.265625
5225,-72.265625
5226,-68.359375
5227,-68.359375
5228,-66.406250
5229,-68.359375
5230,-64.453125
5231,-66.406250
5232,-64.453125
5233,-60.546875
5234,-64.453125
5235,-64.453125
5236,-64.453125
5237,-64.453125
5238,-64.453125
5239,-64.453125
5240,-60.546875
5241,-62.500000
5242,-60.546875
5243,-64.453125
5244,-64.453125
5245,-64.453125
5246,-64.453125
5247,-58.593750
5248,-62.500000
5249,-60.546875
5250,-60.546875
5251,-60.546875
5252,-60.546875
5253,-64.453125
5254,-64.453125
5255,-62.500000
5256,-62.500000
5257,-60.546875
5258,-62.500000
5259,-60.546875
5260,-60.546875
5261,-60.546875
5262,-60.546875
5263,-62.500000
5264,-60.546875
5265,-62.500000
5266,-60.546875
5267,-62.500000
5268,-60.546875
5269,-62.500000
5270,-62.500000
5271,-60.546875
5272,-60.546875
5273,-60.546875
5274,-60.546875
5275,-60.546875
5276,-62.500000
5277,-60.546875
5278,-60.546875
5279,-56.640625
5280,-56.640625
5281,-56.640625
5282,-54.687500
5283,-52.734375
5284,-50.781250
5285,-50.781250
5286,-48.828125
5287,-48.828125
5288,-46.875000
5289,-46.875000
5290,-44.921875
5291,-44.921875
5292,-44.921875
5293,-41.015625
5294,-42.968750
5295,-41.015625
5296,-37.109375
5297,-39.062500
5298,-41.015625
5299,-41.015625
5300,-37.109375
5301,-44.921875
5302,-35.156250
5303,-37.109375
5304,-41.015625
5305,-37.109375
5306,-41.015625
5307,-41.015625
5308,-37.109375
5309,-39.062500
5310,-37.109375
5311,-41.015625
5312,-39.062500
5313,-41.015625
5314,-39.062500
5315,-37.109375
5316,-41.015625
5317,-41.015625
5318,-37.109375
5319,-37.109375
5320,-39.062500
5321,-41.015625
5322,-39.062500
5323,-41.015625
5324,-39.062500
5325,-29.296875
5326,-37.109375
5327,-39.062500
5328,-41.015625
5329,-39.062500
5330,-41.015625
5331,-39.062500
5332,-39.062500
5333,-41.015625
5334,-37.109375
5335,-39.062500
5336,-37.109375
5337,-25.390625
5338,-41.015625
5339,-41.015625
5340,-41.015625
5341,-39.062500
5342,-41.015625
5343,-39.062500
5344,-41.015625
5345,-39.062500
5346,-41.015625
5347,-41.015625
5348,-37.109375
5349,-41.015625
5350,-39.062500
5351,-37.109375
5352,-39.062500
5353,-35.156250
5354,-39.062500
5355,-37.109375
5356,-39.062500
5357,-37.109375
5358,-37.109375
5359,-41.015625
5360,-35.156250
5361,-37.109375
5362,-37.109375
5363,-41.015625
5364,-39.062500
5365,-37.109375
5366,-39.062500
5367,-37.109375
5368,-37.109375
5369,-37.109375
5370,-37.109375
5371,-37.109375
5372,-35.156250
5373,-37.109375
5374,-33.203125
5375,-35.156250
5376,-35.156250
5377,-35.156250
5378,-37.109375
5379,-33.203125
5380,-37.109375
5381,-37.109375
5382,-35.156250
5383,-39.062500
5384,-37.109375
5385,-37.109375
5386,-37.109375
5387,-35.156250
5388,-35.156250
5389,-35.156250
5390,-37.109375
5391,-37.109375
5392,-37.109375
5393,-39.062500
5394,-35.156250
5395,-37.109375
5396,-37.109375
5397,-35.156250
5398,-39.062500
5399,-37.109375
5400,-37.109375
5401,-33.203125
5402,-39.062500
5403,-35.156250
5404,-37.109375
5405,-37.109375
5406,-35.156250
5407,-37.109375
5408,-35.156250
5409,-37.109375
5410,-35.156250
5411,-35.156250
5412,-37.109375
5413,-25.390625
5414,-37.109375
5415,-35.156250
5416,-37.109375
5417,-35.156250
5418,-37.109375
5419,-35.156250
5420,-33.203125
5421,-35.156250
5422,-35.156250
5423,-35.156250
5424,-37.109375
5425,-35.156250
5426,-35.156250
5427,-37.109375
5428,-35.156250
5429,-35.156250
5430,-35.156250
5431,-33.203125
5432,-35.156250
5433,-33.203125
5434,-39.062500
5435,-29.296875
5436,-33.203125
5437,-33.203125
5438,-31.250000
5439,-31.250000
5440,-29.296875
5441,-33.203125
5442,-29.296875
5443,-29.296875
5444,-29.296875
5445,-27.343750
5446,-25.390625
5447,-25.390625
5448,-21.484375
5449,-25.390625
5450,-21.484375
5451,-21.484375
5452,-23.437500
5453,-21.484375
5454,-21.484375
5455,-19.531250
5456,-19.531250
5457,-19.531250
5458,-17.578125
5459,-19.531250
5460,-17.578125
5461,-19.531250
5462,-17.578125
5463,-19.531250
5464,-19.531250
5465,-17.578125
5466,-17.578125
5467,-17.578125
5468,-15.625000
5469,-19.531250
5470,-17.578125
5471,-21.484375
5472,-13.671875
5473,-19.531250
5474,-17.578125
5475,-15.625000
5476,-17.578125
5477,-17.578125
5478,-17.578125
5479,-13.671875
5480,-17.578125
5481,-17.578125
5482,-15.625000
5483,-19.531250
5484,-15.625000
5485,-19.531250
5486,-15.625000
5487,-19.531250
5488,-17.578125
5489,-13.671875
5490,-19.531250
5491,-13.671875
5492,-19.531250
5493,-17.578125
5494,-17.578125
5495,-19.531250
5496,-15.625000
5497,-19.531250
5498,-17.578125
5499,-15.625000
5500,-17.578125
5501,-5.859375
5502,-17.578125
5503,-13.671875
5504,-15.625000
5505,-15.625000
5506,-13.671875
5507,-15.625000
5508,-13.671875
5509,-13.671875
5510,-13.671875
5511,-15.625000
5512,-17.578125
5513,-15.625000
5514,-15.625000
5515,-13.671875
5516,-13.671875
5517,-13.671875
5518,-9.765625
5519,-13.671875
5520,-13.671875
5521,-13.671875
5522,-15.625000
5523,-13.671875
5524,-13.671875
5525,-13.671875
5526,-15.625000
5527,-13.671875
5528,-13.671875
5529,-13.671875
5530,-13.671875
5531,-17.578125
5532,-13.671875
5533,-9.765625
5534,-13.671875
5535,-13.671875
5536,-15.625000
5537,-13.671875
5538,-13.671875
5539,-13.671875
5540,-13.671875
5541,-13.671875
5542,-13.671875
5543,-13.671875
5544,-13.671875
5545,-11.718750
5546,-13.671875
5547,-9.765625
5548,-15.625000
5549,-13.671875
5550,-13.671875
5551,-13.671875
5552,-9.765625
5553,-13.671875
5554,-7.812500
5555,-13.671875
5556,-15.625000
5557,-9.765625
5558,-13.671875
5559,-9.765625
5560,-13.671875
5561,-13.671875
5562,-13.671875
5563,-13.671875
5564,-13.671875
5565,-13.671875
5566,-13.671875
5567,-9.765625
5568,-19.531250
5569,-13.671875
5570,-13.671875
5571,-13.671875
5572,-13.671875
5573,-15.625000
5574,-13.671875
5575,-13.671875
5576,-9.765625
5577,-13.671875
5578,-13.671875
5579,-13.671875
5580,-13.671875
5581,-13.671875
5582,-13.671875
5583,-15.625000
5584,-13.671875
5585,-17.578125
5586,-13.671875
5587,-13.671875
5588,-13.671875
5589,-13.671875
5590,-13.671875
5591,-13.671875
5592,-15.625000
5593,-9.765625
5594,-9.765625
5595,-13.671875
5596,-9.765625
5597,-13.671875
5598,-13.671875
5599,-13.671875
5600,-13.671875
5601,-9.765625
5602,-13.671875
5603,-13.671875
5604,-13.671875
5605,-9.765625
5606,-13.671875
5607,-13.671875
5608,-13.671875
5609,-13.671875
5610,-9.765625
5611,-13.671875
5612,-13.671875
5613,-9.765625
5614,-13.671875
5615,-9.765625
5616,-13.671875
5617,-13.671875
5618,-9.765625
5619,-13.671875
5620,-9.765625
5621,-13.671875
5622,-9.765625
5623,-9.765625
5624,-9.765625
5625,-9.765625
5626,-13.671875
5627,-9.765625
5628,-11.718750
5629,-11.718750
5630,-9.765625
5631,-17.578125
5632,-9.765625
5633,-11.718750
5634,-9.765625
5635,-9.765625
5636,-7.812500
5637,-7.812500
5638,-9.765625
5639,-9.765625
5640,-9.765625
5641,-9.765625
5642,-9.765625
5643,-9.765625
5644,-7.812500
5645,-13.671875
5646,-9.765625
5647,-7.812500
5648,-13.671875
5649,-9.765625
5650,-5.859375
5651,-9.765625
5652,-9.765625
5653,-3.906250
5654,-5.859375
5655,-5.859375
5656,-5.859375
5657,-5.859375
5658,-3.906250
5659,-5.859375
5660,-5.859375
5661,-3.906250
5662,-3.906250
5663,-1.953125
5664,-5.859375
5665,-1.953125
5666,-3.906250
5667,-5.859375
5668,-1.953125
5669,-3.906250
5670,-1.953125
5671,-3.906250
5672,-1.953125
5673,1.953125
5674,-1.953125
5675,-1.953125
5676,-1.953125
5677,5.859375
5678,0.000000
5679,-1.953125
5680,-1.953125
5681,0.000000
5682,-1.953125
5683,1.953125
5684,-3.906250
5685,-1.953125
5686,-1.953125
5687,-1.953125
5688,0.000000
5689,-1.953125
5690,0.000000
5691,-1.953125
5692,-1.953125
5693,0.000000
5694,-3.906250
5695,-3.906250
5696,-1.953125
5697,-1.953125
5698,-1.953125
5699,-1.953125
5700,-1.953125
5701,-1.953125
5702,-1.953125
5703,0.000000
5704,-1.953125
5705,-1.953125
5706,-1.953125
5707,-1.953125
5708,-1.953125
5709,-1.953125
5710,0.000000
5711,-5.859375
5712,-1.953125
5713,-3.906250
5714,-3.906250
5715,-1.953125
5716,-1.953125
5717,-1.953125
5718,-1.953125
5719,-3.906250
5720,0.000000
5721,-1.953125
5722,-1.953125
5723,-3.906250
5724,-1.953125
5725,-1.953125
5726,-1.953125
5727,7.812500
5728,-3.906250
5729,-1.953125
5730,-3.906250
5731,-1.953125
5732,-1.953125
5733,-5.859375
5734,-1.953125
5735,-1.953125
5736,-1.953125
5737,-1.953125
5738,-3.906250
5739,-1.953125
5740,-5.859375
5741,-1.953125
5742,-1.953125
5743,-1.953125
5744,5.859375
5745,-3.906250
5746,-1.953125
5747,-1.953125
5748,-1.953125
5749,-3.906250
5750,-3.906250
5751,-1.953125
5752,1.953125
5753,-5.859375
5754,0.000000
5755,-1.953125
5756,-1.953125
5757,-1.953125
5758,-3.906250
5759,-1.953125
5760,-3.906250
5761,-1.953125
5762,-3.906250
5763,-3.906250
5764,-1.953125
5765,-3.906250
5766,1.953125
5767,-1.953125
5768,-3.906250
5769,-1.953125
5770,-1.953125
5771,-1.953125
5772,-1.953125
5773,-1.953125
5774,-5.859375
5775,-1.953125
5776,-1.953125
5777,-1.953125
5778,-1.953125
5779,-5.859375
5780,-3.906250
5781,-1.953125
5782,-3.906250
5783,0.000000
5784,-3.906250
5785,-1.953125
5786,-1.953125
5787,-1.953125
5788,-1.953125
5789,-1.953125
5790,-1.953125
5791,-3.906250
5792,-3.906250
5793,-1.953125
5794,-3.906250
5795,-1.953125
5796,-3.906250
5797,-1.953125
5798,-1.953125
5799,-9.765625
5800,-1.953125
5801,-1.953125
5802,-1.953125
5803,-7.812500
5804,-3.906250
5805,-1.953125
5806,-1.953125
5807,-1.953125
5808,-1.953125
5809,-1.953125
5810,-1.953125
5811,-17.578125
5812,-1.953125
5813,-1.953125
5814,-1.953125
5815,-1.953125
5816,-1.953125
5817,-1.953125
5818,-1.953125
5819,-3.906250
5820,-1.953125
5821,-1.953125
5822,0.000000
5823,0.000000
5824,-5.859375
5825,-1.953125
5826,-1.953125
5827,-1.953125
5828,-1.953125
5829,-1.953125
5830,-1.953125
5831,-3.906250
5832,-7.812500
5833,-3.906250
5834,-1.953125
5835,-3.906250
5836,-1.953125
5837,-1.953125
5838,-5.859375
5839,-3.906250
5840,-3.906250
5841,-3.906250
5842,-3.906250
5843,-3.906250
5844,-3.906250
5845,-9.765625
5846,-5.859375
5847,-7.812500
5848,-7.812500
5849,-5.859375
5850,-9.765625
5851,-7.812500
5852,-9.765625
5853,-9.765625
5854,-9.765625
5855,-11.718750
5856,-11.718750
5857,-13.671875
5858,-13.671875
5859,-13.671875
5860,-13.671875
5861,-13.671875
5862,-15.625000
5863,-15.625000
5864,-17.578125
5865,-17.578125
5866,-17.578125
5867,-21.484375
5868,-17.578125
5869,-17.578125
5870,-19.531250
5871,-25.390625
5872,-21.484375
5873,-19.531250
5874,-19.531250
5875,-21.484375
5876,-19.531250
5877,-23.437500
5878,-5.859375
5879,-23.437500
5880,-21.484375
5881,-23.437500
5882,-23.437500
5883,-23.437500
5884,-25.390625
5885,-23.437500
5886,-23.437500
5887,-23.437500
5888,-23.437500
5889,-25.390625
5890,-23.437500
5891,-27.343750
5892,-25.390625
5893,-21.484375
5894,-25.390625
5895,-23.437500
5896,-23.437500
5897,-23.437500
5898,-25.390625
5899,-41.015625
5900,-25.390625
5901,-23.437500
5902,-23.437500
5903,-25.390625
5904,-23.437500
5905,-29.296875
5906,-25.390625
5907,-25.390625
5908,-25.390625
5909,-25.390625
5910,-29.296875
5911,-25.390625
5912,-25.390625
5913,-29.296875
5914,-25.390625
5915,-29.296875
5916,-25.390625
5917,-29.296875
5918,-29.296875
5919,-29.296875
5920,-25.390625
5921,-25.390625
5922,-29.296875
5923,-25.390625
5924,-31.250000
5925,-33.203125
5926,-29.296875
5927,-31.250000
5928,-29.296875
5929,-33.203125
5930,-33.203125
5931,-29.296875
5932,-33.203125
5933,-29.296875
5934,-33.203125
5935,-42.968750
5936,-35.156250
5937,-33.203125
5938,-33.203125
5939,-33.203125
5940,-33.203125
5941,-35.156250
5942,-37.109375
5943,-35.156250
5944,-35.156250
5945,-33.203125
5946,-35.156250
5947,-35.156250
5948,-33.203125
5949,-39.062500
5950,-33.203125
5951,-35.156250
5952,-35.156250
5953,-35.156250
5954,-39.062500
5955,-35.156250
5956,-33.203125
5957,-35.156250
5958,-33.203125
5959,-37.109375
5960,-37.109375
5961,-37.109375
5962,-37.109375
5963,-35.156250
5964,-37.109375
5965,-37.109375
5966,-35.156250
5967,-37.109375
5968,-37.109375
5969,-41.015625
5970,-41.015625
5971,-41.015625
5972,-41.015625
5973,-44.921875
5974,-44.921875
5975,-41.015625
5976,-48.828125
5977,-44.921875
5978,-46.875000
5979,-44.921875
5980,-44.921875
5981,-48.828125
5982,-46.875000
5983,-52.734375
5984,-48.828125
5985,-48.828125
5986,-50.781250
5987,-48.828125
5988,-52.734375
5989,-48.828125
5990,-50.781250
5991,-48.828125
5992,-58.593750
5993,-50.781250
5994,-48.828125
5995,-54.687500
5996,-48.828125
5997,-48.828125
5998,-52.734375
5999,-50.781250
6000,-56.640625
6001,-50.781250
6002,-54.687500
6003,-56.640625
6004,-54.687500
6005,-54.687500
6006,-52.734375
6007,-56.640625
6008,-56.640625
6009,-52.734375
6010,-56.640625
6011,-52.734375
6012,-56.640625
6013,-56.640625
6014,-56.640625
6015,-56.640625
6016,-54.687500
6017,-58.593750
6018,-54.687500
6019,-58.593750
6020,-56.640625
6021,-56.640625
6022,-56.640625
6023,-54.687500
6024,-60.546875
6025,-54.687500
6026,-60.546875
6027,-56.640625
6028,-60.546875
6029,-60.546875
6030,-58.593750
6031,-60.546875
6032,-60.546875
6033,-64.453125
6034,-60.546875
6035,-60.546875
6036,-60.546875
6037,-60.546875
6038,-62.500000
6039,-62.500000
6040,-62.500000
6041,-60.546875
6042,-60.546875
6043,-64.453125
6044,-64.453125
6045,-64.453125
6046,-62.500000
6047,-64.453125
6048,-64.453125
6049,-62.500000
6050,-62.500000
6051,-64.453125
6052,-64.453125
6053,-64.453125
6054,-60.546875
6055,-64.453125
6056,-64.453125
6057,-64.453125
6058,-64.453125
6059,-64.453125
6060,-64.453125
6061,-64.453125
6062,-64.453125
6063,-64.453125
6064,-64.453125
6065,-64.453125
6066,-62.500000
6067,-64.453125
6068,-66.406250
6069,-64.453125
6070,-66.406250
6071,-64.453125
6072,-66.406250
6073,-64.453125
6074,-64.453125
6075,-64.453125
6076,-66.406250
6077,-66.406250
6078,-66.406250
6079,-66.406250
6080,-64.453125
6081,-64.453125
6082,-68.359375
6083,-66.406250
6084,-64.453125
6085,-66.406250
6086,-66.406250
6087,-66.406250
6088,-66.406250
6089,-66.406250
6090,-66.406250
6091,-66.406250
6092,-64.453125
6093,-66.406250
6094,-68.359375
6095,-70.312500
6096,-68.359375
6097,-70.312500
6098,-66.406250
6099,-68.359375
6100,-66.406250
6101,-68.359375
6102,-68.359375
6103,-68.359375
6104,-70.312500
6105,-66.406250
6106,-70.312500
6107,-66.406250
6108,-68.359375
6109,-68.359375
6110,-66.406250
6111,-72.265625
6112,-66.406250
6113,-70.312500
6114,-66.406250
6115,-68.359375
6116,-68.359375
6117,-70.312500
6118,-66.406250
6119,-66.406250
6120,-68.359375
6121,-66.406250
6122,-66.406250
6123,-72.265625
6124,-68.359375
6125,-68.359375
6126,-66.406250
6127,-68.359375
6128,-66.406250
6129,-66.406250
6130,-66.406250
6131,-68.359375
6132,-68.359375
6133,-68.359375
6134,-70.312500
6135,-68.359375
6136,-68.359375
6137,-70.312500
6138,-70.312500
6139,-70.312500
6140,-68.359375
6141,-68.359375
6142,-64.453125
6143,-70.312500
6144,-66.406250
6145,-70.312500
6146,-64.453125
6147,-72.265625
6148,-70.312500
6149,-70.312500
6150,-66.406250
6151,-70.312500
6152,-70.312500
6153,-66.406250
6154,-72.265625
6155,-66.406250
6156,-70.312500
6157,-66.406250
6158,-68.359375
6159,-66.406250
6160,-68.359375
6161,-68.359375
6162,-68.359375
6163,-68.359375
6164,-66.406250
6165,-66.406250
6166,-64.453125
6167,-70.312500
6168,-66.406250
6169,-70.312500
6170,-68.359375
6171,-70.312500
6172,-68.359375
6173,-70.312500
6174,-70.312500
6175,-66.406250
6176,-70.312500
6177,-70.312500
6178,-68.359375
6179,-70.312500
6180,-68.359375
6181,-70.312500
6182,-70.312500
6183,-72.265625
6184,-72.265625
6185,-70.312500
6186,-72.265625
6187,-68.359375
6188,-70.312500
6189,-72.265625
6190,-70.312500
6191,-72.265625
6192,-66.406250
6193,-70.312500
6194,-70.312500
6195,-70.312500
6196,-72.265625
6197,-70.312500
6198,-72.265625
6199,-72.265625
6200,-72.265625
6201,-72.265625
6202,-70.312500
6203,-72.265625
6204,-72.265625
6205,-70.312500
6206,-70.312500
6207,-68.359375
6208,-70.312500
6209,-72.265625
6210,-72.265625
6211,-72.265625
6212,-70.312500
6213,-72.265625
6214,-72.265625
6215,-70.312500
6216,-72.265625
6217,-68.359375
6218,-72.265625
6219,-70.312500
6220,-72.265625
6221,-70.312500
6222,-70.312500
6223,-72.265625
6224,-70.312500
6225,-72.265625
6226,-68.359375
6227,-70.312500
6228,-70.312500
6229,-68.359375
6230,-72.265625
6231,-66.406250
6232,-68.359375
6233,-64.453125
6234,-66.406250
6235,-66.406250
6236,-64.453125
6237,-64.453125
6238,-64.453125
6239,-62.500000
6240,-64.453125
6241,-60.546875
6242,-64.453125
6243,-60.546875
6244,-62.500000
6245,-60.546875
6246,-56.640625
6247,-60.546875
6248,-60.546875
6249,-60.546875
6250,-56.640625
6251,-70.312500
6252,-56.640625
6253,-56.640625
6254,-56.640625
6255,-52.734375
6256,-52.734375
6257,-56.640625
6258,-48.828125
6259,-50.781250
6260,-48.828125
6261,-48.828125
6262,-48.828125
6263,-46.875000
6264,-46.875000
6265,-46.875000
6266,-44.921875
6267,-46.875000
6268,-44.921875
6269,-44.921875
6270,-44.921875
6271,-44.921875
6272,-41.015625
6273,-41.015625
6274,-44.921875
6275,-41.015625
6276,-44.921875
6277,-42.968750
6278,-41.015625
6279,-44.921875
6280,-41.015625
6281,-44.921875
6282,-41.015625
6283,-41.015625
6284,-42.968750
6285,-41.015625
6286,-41.015625
6287,-41.015625
6288,-42.968750
6289,-41.015625
6290,-41.015625
6291,-41.015625
6292,-39.062500
6293,-44.921875
6294,-41.015625
6295,-41.015625
6296,-41.015625
6297,-41.015625
6298,-44.921875
6299,-41.015625
6300,-44.921875
6301,-41.015625
6302,-41.015625
6303,-41.015625
6304,-39.062500
6305,-44.921875
6306,-41.015625
6307,-41.015625
6308,-41.015625
6309,-41.015625
6310,-44.921875
6311,-39.062500
6312,-41.015625
6313,-41.015625
6314,-41.015625
6315,-41.015625
6316,-39.062500
6317,-41.015625
6318,-39.062500
6319,-41.015625
6320,-41.015625
6321,-41.015625
6322,-42.968750
6323,-41.015625
6324,-44.921875
6325,-39.062500
6326,-41.015625
6327,-41.015625
6328,-39.062500
6329,-41.015625
6330,-39.062500
6331,-37.109375
6332,-37.109375
6333,-37.109375
6334,-37.109375
6335,-35.156250
6336,-37.109375
6337,-35.156250
6338,-37.109375
6339,-33.203125
6340,-35.156250
6341,-35.156250
6342,-35.156250
6343,-37.109375
6344,-37.109375
6345,-35.156250
6346,-35.156250
6347,-35.156250
6348,-35.156250
6349,-39.062500
6350,-39.062500
6351,-41.015625
6352,-41.015625
6353,-39.062500
6354,-41.015625
6355,-41.015625
6356,-44.921875
6357,-41.015625
6358,-41.015625
6359,-44.921875
6360,-46.875000
6361,-44.921875
6362,-42.968750
6363,-46.875000
6364,-44.921875
6365,-46.875000
6366,-44.921875
6367,-31.250000
6368,-46.875000
6369,-44.921875
6370,-46.875000
6371,-44.921875
6372,-46.875000
6373,-46.875000
6374,-48.828125
6375,-48.828125
6376,-48.828125
6377,-46.875000
6378,-50.781250
6379,-46.875000
6380,-48.828125
6381,-48.828125
6382,-48.828125
6383,-48.828125
6384,-46.875000
6385,-50.781250
6386,-48.828125
6387,-50.781250
6388,-46.875000
6389,-46.875000
6390,-52.734375
6391,-44.921875
6392,-48.828125
6393,-48.828125
6394,-48.828125
6395,-48.828125
6396,-46.875000
6397,-50.781250
6398,-46.875000
6399,-50.781250
6400,-46.875000
6401,-48.828125
6402,-48.828125
6403,-48.828125
6404,-52.734375
6405,-44.921875
6406,-50.781250
6407,-48.828125
6408,-50.781250
6409,-78.125000
6410,-48.828125
6411,-48.828125
6412,-46.875000
6413,-48.828125
6414,-44.921875
6415,-46.875000
6416,-46.875000
6417,-44.921875
6418,-48.828125
6419,-44.921875
6420,-48.828125
6421,-48.828125
6422,-46.875000
6423,-46.875000
6424,-44.921875
6425,-50.781250
6426,-46.875000
6427,-44.921875
6428,-46.875000
6429,-46.875000
6430,-44.921875
6431,-46.875000
6432,-44.921875
6433,-46.875000
6434,-44.921875
6435,-44.921875
6436,-44.921875
6437,-44.921875
6438,-44.921875
6439,-44.921875
6440,-48.828125
6441,-44.921875
6442,-44.921875
6443,-44.921875
6444,-41.015625
6445,-46.875000
6446,-41.015625
6447,-41.015625
6448,-35.156250
6449,-41.015625
6450,-44.921875
6451,-41.015625
6452,-41.015625
6453,-42.968750
6454,-41.015625
6455,-41.015625
6456,-41.015625
6457,-41.015625
6458,-41.015625
6459,-39.062500
6460,-41.015625
6461,-39.062500
6462,-39.062500
6463,-35.156250
6464,-35.156250
6465,-35.156250
6466,-33.203125
6467,-35.156250
6468,-35.156250
6469,-48.828125
6470,-35.156250
6471,-33.203125
6472,-33.203125
6473,-29.296875
6474,-33.203125
6475,-29.296875
6476,-29.296875
6477,-35.156250
6478,-27.343750
6479,-29.296875
6480,-27.343750
6481,-29.296875
6482,-29.296875
6483,-25.390625
6484,-29.296875
6485,-23.437500
6486,-31.250000
6487,-25.390625
6488,-25.390625
6489,-23.437500
6490,-17.578125
6491,-25.390625
6492,-21.484375
6493,-23.437500
6494,-23.437500
6495,-21.484375
6496,-23.437500
6497,-23.437500
6498,-19.531250
6499,-23.437500
6500,-21.484375
6501,-23.437500
6502,-25.390625
6503,-21.484375
6504,-23.437500
6505,-19.531250
6506,-23.437500
6507,-29.296875
6508,-23.437500
6509,-23.437500
6510,-21.484375
6511,-13.671875
6512,-19.531250
6513,-23.437500
6514,-21.484375
6515,-19.531250
6516,-25.390625
6517,-19.531250
6518,-23.437500
6519,-21.484375
6520,-21.484375
6521,-23.437500
6522,-21.484375
6523,-23.437500
6524,-19.531250
6525,-21.484375
6526,-23.437500
6527,-19.531250
6528,-25.390625
6529,-21.484375
6530,-23.437500
6531,-21.484375
6532,-23.437500
6533,-21.484375
6534,-21.484375
6535,-23.437500
6536,-19.531250
6537,-21.484375
6538,-23.437500
6539,-25.390625
6540,-23.437500
6541,-3.906250
6542,-21.484375
6543,-23.437500
6544,-17.578125
6545,-5.859375
6546,-19.531250
6547,-19.531250
6548,-17.578125
6549,-15.625000
6550,-19.531250
6551,-17.578125
6552,-15.625000
6553,-19.531250
6554,-13.671875
6555,-17.578125
6556,-13.671875
6557,-17.578125
6558,-15.625000
6559,-13.671875
6560,-13.671875
6561,-13.671875
6562,-13.671875
6563,-13.671875
6564,-13.671875
6565,-13.671875
6566,-9.765625
6567,-9.765625
6568,-9.765625
6569,-9.765625
6570,-13.671875
6571,-9.765625
6572,-7.812500
6573,-11.718750
6574,-9.765625
6575,-9.765625
6576,-9.765625
6577,-9.765625
6578,-1.953125
6579,-9.765625
6580,-9.765625
6581,-7.812500
6582,-9.765625
6583,-9.765625
6584,-7.812500
6585,-9.765625
6586,-7.812500
6587,-9.765625
6588,-9.765625
6589,-7.812500
6590,-9.765625
6591,-5.859375
6592,-9.765625
6593,-5.859375
6594,-5.859375
6595,-3.906250
6596,-5.859375
6597,-7.812500
6598,-9.765625
6599,-7.812500
6600,-9.765625
6601,-3.906250
6602,-5.859375
6603,-3.906250
6604,-3.906250
6605,-5.859375
6606,-5.859375
6607,-5.859375
6608,-5.859375
6609,-1.953125
6610,-5.859375
6611,-1.953125
6612,-5.859375
6613,-3.906250
6614,-1.953125
6615,-3.906250
6616,-5.859375
6617,-3.906250
6618,-3.906250
6619,-1.953125
6620,-3.906250
6621,-1.953125
6622,-3.906250
6623,-1.953125
6624,1.953125
6625,-3.906250
6626,-3.906250
6627,-5.859375
6628,-1.953125
6629,-5.859375
6630,-1.953125
6631,-3.906250
6632,-3.906250
6633,-3.906250
6634,-5.859375
6635,-3.906250
6636,-1.953125
6637,-3.906250
6638,-1.953125
6639,-1.953125
6640,-3.906250
6641,0.000000
6642,-1.953125
6643,-1.953125
6644,-1.953125
6645,-1.953125
6646,-1.953125
6647,-1.953125
6648,-1.953125
6649,-1.953125
6650,-1.953125
6651,-1.953125
6652,0.000000
6653,1.953125
6654,-1.953125
6655,0.000000
6656,-1.953125
6657,1.953125
6658,0.000000
6659,1.953125
6660,0.000000
6661,-1.953125
6662,-1.953125
6663,-1.953125
6664,-1.953125
6665,0.000000
6666,0.000000
6667,0.000000
6668,-1.953125
6669,0.000000
6670,7.812500
6671,-1.953125
6672,1.953125
6673,-1.953125
6674,1.953125
6675,0.000000
6676,-1.953125
6677,0.000000
6678,-1.953125
6679,0.000000
6680,0.000000
6681,-1.953125
6682,-3.906250
6683,-1.953125
6684,0.000000
6685,1.953125
6686,-1.953125
6687,-5.859375
6688,0.000000
6689,0.000000
6690,0.000000
6691,-1.953125
6692,1.953125
6693,-1.953125
6694,-1.953125
6695,0.000000
6696,-1.953125
6697,0.000000
6698,0.000000
6699,0.000000
6700,-1.953125
6701,-1.953125
6702,-1.953125
6703,-1.953125
6704,-1.953125
6705,1.953125
6706,-1.953125
6707,0.000000
6708,1.953125
6709,1.953125
6710,0.000000
6711,-1.953125
6712,0.000000
6713,-1.953125
6714,-1.953125
6715,0.000000
6716,0.000000
6717,0.000000
6718,0.000000
6719,0.000000
6720,0.000000
6721,0.000000
6722,0.000000
6723,0.000000
6724,0.000000
6725,-1.953125
6726,-1.953125
6727,-1.953125
6728,0.000000
6729,0.000000
6730,-1.953125
6731,-1.953125
6732,0.000000
6733,-1.953125
6734,0.000000
6735,-1.953125
6736,0.000000
6737,5.859375
6738,-1.953125
6739,0.000000
6740,-1.953125
6741,-1.953125
6742,-1.953125
6743,0.000000
6744,-1.953125
6745,-1.953125
6746,0.000000
6747,-1.953125
6748,0.000000
6749,0.000000
6750,1.953125
6751,0.000000
6752,-1.953125
6753,-1.953125
6754,-1.953125
6755,-1.953125
6756,-1.953125
6757,-1.953125
6758,1.953125
6759,1.953125
6760,-1.953125
6761,-1.953125
6762,-1.953125
6763,0.000000
6764,0.000000
6765,-1.953125
6766,1.953125
6767,-1.953125
6768,0.000000
6769,0.000000
6770,-1.953125
6771,1.953125
6772,0.000000
6773,1.953125
6774,0.000000
6775,0.000000
6776,1.953125
6777,-1.953125
6778,0.000000
6779,-1.953125
6780,0.000000
6781,0.000000
6782,-1.953125
6783,0.000000
6784,-1.953125
6785,-1.953125
6786,0.000000
6787,0.000000
6788,0.000000
6789,-1.953125
6790,0.000000
6791,-1.953125
6792,-1.953125
6793,1.953125
6794,-1.953125
6795,0.000000
6796,-1.953125
6797,1.953125
6798,1.953125
6799,0.000000
6800,0.000000
6801,0.000000
6802,-1.953125
6803,0.000000
6804,1.953125
6805,0.000000
6806,0.000000
6807,-1.953125
6808,0.000000
6809,0.000000
6810,1.953125
6811,0.000000
6812,0.000000
6813,1.953125
6814,-1.953125
6815,0.000000
6816,-1.953125
6817,-1.953125
6818,-1.953125
6819,-1.953125
6820,-1.953125
6821,-1.953125
6822,0.000000
6823,-5.859375
6824,-3.906250
6825,-1.953125
6826,-3.906250
6827,-1.953125
6828,-3.906250
6829,-1.953125
6830,-3.906250
6831,-5.859375
6832,-3.906250
6833,-5.859375
6834,-3.906250
6835,-7.812500
6836,-7.812500
6837,-3.906250
6838,-9.765625
6839,-5.859375
6840,-7.812500
6841,-7.812500
6842,-5.859375
6843,-9.765625
6844,-5.859375
6845,-7.812500
6846,-5.859375
6847,-5.859375
6848,-9.765625
6849,-5.859375
6850,-7.812500
6851,-9.765625
6852,-3.906250
6853,-9.765625
6854,-7.812500
6855,-7.812500
6856,-9.765625
6857,-7.812500
6858,-9.765625
6859,-9.765625
6860,-9.765625
6861,-9.765625
6862,-9.765625
6863,-9.765625
6864,-5.859375
6865,-7.812500
6866,-7.812500
6867,-3.906250
6868,-9.765625
6869,-9.765625
6870,-9.765625
6871,-7.812500
6872,-9.765625
6873,-7.812500
6874,-7.812500
6875,-9.765625
6876,-9.765625
6877,-9.765625
6878,-7.812500
6879,-9.765625
6880,-9.765625
6881,-7.812500
6882,-9.765625
6883,-7.812500
6884,-9.765625
6885,-9.765625
6886,-9.765625
6887,-9.765625
6888,-9.765625
6889,-9.765625
6890,-5.859375
6891,-9.765625
6892,-9.765625
6893,-9.765625
6894,-9.765625
6895,-7.812500
6896,-9.765625
6897,-9.765625
6898,-9.765625
6899,-9.765625
6900,-7.812500
6901,-13.671875
6902,-9.765625
6903,-7.812500
6904,-9.765625
6905,-9.765625
6906,-9.765625
6907,-9.765625
6908,-13.671875
6909,-9.765625
6910,-7.812500
6911,-9.765625
6912,-5.859375
6913,1.953125
6914,-9.765625
6915,-5.859375
6916,-7.812500
6917,-3.906250
6918,-7.812500
6919,-5.859375
6920,-5.859375
6921,-7.812500
6922,-5.859375
6923,-9.765625
6924,-5.859375
6925,-5.859375
6926,-9.765625
6927,-5.859375
6928,-1.953125
6929,-5.859375
6930,-3.906250
6931,-5.859375
6932,-3.906250
6933,-7.812500
6934,1.953125
6935,-5.859375
6936,-5.859375
6937,-5.859375
6938,-7.812500
6939,-5.859375
6940,-3.906250
6941,-9.765625
6942,-5.859375
6943,-3.906250
6944,-5.859375
6945,-3.906250
6946,-7.812500
6947,-5.859375
6948,-5.859375
6949,-7.812500
6950,-3.906250
6951,-5.859375
6952,-3.906250
6953,-5.859375
6954,-3.906250
6955,-3.906250
6956,-5.859375
6957,-3.906250
6958,-3.906250
6959,-3.906250
6960,-3.906250
6961,-5.859375
6962,-1.953125
6963,-3.906250
6964,-3.906250
6965,-3.906250
6966,-3.906250
6967,-1.953125
6968,-1.953125
6969,-5.859375
6970,-1.953125
6971,-3.906250
6972,-1.953125
6973,-3.906250
6974,-3.906250
6975,-1.953125
6976,-3.906250
6977,0.000000
6978,-3.906250
6979,-3.906250
6980,0.000000
6981,-5.859375
6982,-1.953125
6983,-5.859375
6984,-1.953125
6985,-3.906250
6986,-1.953125
6987,-1.953125
6988,-5.859375
6989,-1.953125
6990,-5.859375
6991,-3.906250
6992,-3.906250
6993,-5.859375
6994,-1.953125
6995,-5.859375
6996,-1.953125
6997,-1.953125
6998,-3.906250
6999,-1.953125
7000,-5.859375
7001,1.953125
7002,-3.906250
7003,-5.859375
7004,-1.953125
7005,-3.906250
7006,-3.906250
7007,-3.906250
7008,-5.859375
7009,-3.906250
7010,-3.906250
7011,-1.953125
7012,-3.906250
7013,-3.906250
7014,-5.859375
7015,-7.812500
7016,-5.859375
7017,-3.906250
7018,-9.765625
7019,-3.906250
7020,-7.812500
7021,-3.906250
7022,-7.812500
7023,-3.906250
7024,-5.859375
7025,-7.812500
7026,-3.906250
7027,-5.859375
7028,-3.906250
7029,-7.812500
7030,-3.906250
7031,-5.859375
7032,-7.812500
7033,-5.859375
7034,-7.812500
7035,-7.812500
7036,-5.859375
7037,-7.812500
7038,-3.906250
7039,-37.109375
7040,-7.812500
7041,-7.812500
7042,-7.812500
7043,-9.765625
7044,-7.812500
7045,-7.812500
7046,-9.765625
7047,-9.765625
7048,-9.765625
7049,-9.765625
7050,-7.812500
7051,-9.765625
7052,-9.765625
7053,-9.765625
7054,-9.765625
7055,-9.765625
7056,-9.765625
7057,-9.765625
7058,-9.765625
7059,-9.765625
7060,-9.765625
7061,-9.765625
7062,-9.765625
7063,-9.765625
7064,-7.812500
7065,-9.765625
7066,-9.765625
7067,-9.765625
7068,-9.765625
7069,-9.765625
7070,-7.812500
7071,-9.765625
7072,-7.812500
7073,-9.765625
7074,-9.765625
7075,-9.765625
7076,-9.765625
7077,-7.812500
7078,-7.812500
7079,-9.765625
7080,-7.812500
7081,-7.812500
7082,-7.812500
7083,-9.765625
7084,-3.906250
7085,-13.671875
7086,-9.765625
7087,-9.765625
7088,-9.765625
7089,-9.765625
7090,-9.765625
7091,-7.812500
7092,-9.765625
7093,-11.718750
7094,-7.812500
7095,-13.671875
7096,-9.765625
7097,-9.765625
7098,-9.765625
7099,-7.812500
7100,-9.765625
7101,-9.765625
7102,-9.765625
7103,-9.765625
7104,-9.765625
7105,-9.765625
7106,-9.765625
7107,-9.765625
7108,-9.765625
7109,-7.812500
7110,-9.765625
7111,-7.812500
7112,-9.765625
7113,-9.765625
7114,-7.812500
7115,-9.765625
7116,-7.812500
7117,-9.765625
7118,-9.765625
7119,-9.765625
7120,-9.765625
7121,-9.765625
7122,-9.765625
7123,-9.765625
7124,-9.765625
7125,-9.765625
7126,-9.765625
7127,-9.765625
7128,-9.765625
7129,-9.765625
7130,-9.765625
7131,-7.812500
7132,-9.765625
7133,-9.765625
7134,-9.765625
7135,-7.812500
7136,-9.765625
7137,-9.765625
7138,-9.765625
7139,-9.765625
7140,-9.765625
7141,-9.765625
7142,-9.765625
7143,-5.859375
7144,-9.765625
7145,-9.765625
7146,-9.765625
7147,-9.765625
7148,-7.812500
7149,-9.765625
7150,-3.906250
7151,-9.765625
7152,-13.671875
7153,-7.812500
7154,-9.765625
7155,-9.765625
7156,-9.765625
7157,-9.765625
7158,-9.765625
7159,-7.812500
7160,-7.812500
7161,-5.859375
7162,-9.765625
7163,-9.765625
7164,-9.765625
7165,-11.718750
7166,-9.765625
7167,-13.671875
7168,-13.671875
7169,-13.671875
7170,-15.625000
7171,-9.765625
7172,-15.625000
7173,-13.671875
7174,-17.578125
7175,-19.531250
7176,-13.671875
7177,-19.531250
7178,-19.531250
7179,-17.578125
7180,-21.484375
7181,-33.203125
7182,-21.484375
7183,-23.437500
7184,-21.484375
7185,-23.437500
7186,-23.437500
7187,-23.437500
7188,-25.390625
7189,-25.390625
7190,-25.390625
7191,-25.390625
7192,-25.390625
7193,-25.390625
7194,-29.296875
7195,-29.296875
7196,-27.343750
7197,-31.250000
7198,-31.250000
7199,-29.296875
7200,-29.296875
7201,-29.296875
7202,-29.296875
7203,-31.250000
7204,-31.250000
7205,-33.203125
7206,-29.296875
7207,-33.203125
7208,-33.203125
7209,-31.250000
7210,-35.156250
7211,-33.203125
7212,-37.109375
7213,-33.203125
7214,-37.109375
7215,-37.109375
7216,-35.156250
7217,-39.062500
7218,-35.156250
7219,-41.015625
7220,-39.062500
7221,-39.062500
7222,-39.062500
7223,-39.062500
7224,-44.921875
7225,-41.015625
7226,-41.015625
7227,-41.015625
7228,-41.015625
7229,-44.921875
7230,-41.015625
7231,-44.921875
7232,-41.015625
7233,-42.968750
7234,-48.828125
7235,-41.015625
7236,-44.921875
7237,-41.015625
7238,-46.875000
7239,-41.015625
7240,-44.921875
7241,-44.921875
7242,-44.921875
7243,-50.781250
7244,-46.875000
7245,-46.875000
7246,-44.921875
7247,-46.875000
7248,-46.875000
7249,-48.828125
7250,-46.875000
7251,-48.828125
7252,-48.828125
7253,-48.828125
7254,-48.828125
7255,-46.875000
7256,-52.734375
7257,-48.828125
7258,-48.828125
7259,-50.781250
7260,-50.781250
7261,-52.734375
7262,-50.781250
7263,-50.781250
7264,-50.781250
7265,-50.781250
7266,-54.687500
7267,-48.828125
7268,-56.640625
7269,-52.734375
7270,-52.734375
7271,-54.687500
7272,-52.734375
7273,-56.640625
7274,-52.734375
7275,-50.781250
7276,-48.828125
7277,-52.734375
7278,-54.687500
7279,-54.687500
7280,-54.687500
7281,-52.734375
7282,-54.687500
7283,-52.734375
7284,-54.687500
7285,-54.687500
7286,-54.687500
7287,-56.640625
7288,-52.734375
7289,-56.640625
7290,-52.734375
7291,-48.828125
7292,-56.640625
7293,-54.687500
7294,-56.640625
7295,-54.687500
7296,-54.687500
7297,-58.593750
7298,-52.734375
7299,-56.640625
7300,-54.687500
7301,-56.640625
7302,-56.640625
7303,-56.640625
7304,-56.640625
7305,-54.687500
7306,-56.640625
7307,-56.640625
7308,-54.687500
7309,-60.546875
7310,-56.640625
7311,-56.640625
7312,-56.640625
7313,-56.640625
7314,-56.640625
7315,-54.687500
7316,-60.546875
7317,-56.640625
7318,-54.687500
7319,-56.640625
7320,-56.640625
7321,-56.640625
7322,-54.687500
7323,-56.640625
7324,-56.640625
7325,-56.640625
7326,-60.546875
7327,-56.640625
7328,-56.640625
7329,-56.640625
7330,-56.640625
7331,-56.640625
7332,-56.640625
7333,-54.687500
7334,-54.687500
7335,-54.687500
7336,-56.640625
7337,-56.640625
7338,-58.593750
7339,-56.640625
7340,-56.640625
7341,-56.640625
7342,-56.640625
7343,-56.640625
7344,-54.687500
7345,-54.687500
7346,-56.640625
7347,-56.640625
7348,-54.687500
7349,-54.687500
7350,-56.640625
7351,-54.687500
7352,-52.734375
7353,-56.640625
7354,-52.734375
7355,-56.640625
7356,-54.687500
7357,-60.546875
7358,-54.687500
7359,-54.687500
7360,-56.640625
7361,-52.734375
7362,-56.640625
7363,-54.687500
7364,-52.734375
7365,-54.687500
7366,-54.687500
7367,-56.640625
7368,-54.687500
7369,-54.687500
7370,-52.734375
7371,-50.781250
7372,-52.734375
7373,-50.781250
7374,-50.781250
7375,-54.687500
7376,-50.781250
7377,-50.781250
7378,-44.921875
7379,-54.687500
7380,-50.781250
7381,-52.734375
7382,-48.828125
7383,-52.734375
7384,-52.734375
7385,-48.828125
7386,-48.828125
7387,-48.828125
7388,-48.828125
7389,-48.828125
7390,-48.828125
7391,-48.828125
7392,-48.828125
7393,-46.875000
7394,-48.828125
7395,-44.921875
7396,-46.875000
7397,-44.921875
7398,-42.968750
7399,-46.875000
7400,-44.921875
7401,-46.875000
7402,-44.921875
7403,-46.875000
7404,-44.921875
7405,-44.921875
7406,-44.921875
7407,-42.968750
7408,-42.968750
7409,-44.921875
7410,-44.921875
7411,-44.921875
7412,-41.015625
7413,-46.875000
7414,-44.921875
7415,-46.875000
7416,-41.015625
7417,-42.968750
7418,-48.828125
7419,-41.015625
7420,-46.875000
7421,-44.921875
7422,-44.921875
7423,-44.921875
7424,-41.015625
7425,-44.921875
7426,-44.921875
7427,-41.015625
7428,-44.921875
7429,-41.015625
7430,-42.968750
7431,-39.062500
7432,-37.109375
7433,-35.156250
7434,-33.203125
7435,-33.203125
7436,-31.250000
7437,-29.296875
7438,-29.296875
7439,-25.390625
7440,-29.296875
7441,-29.296875
7442,-23.437500
7443,-23.437500
7444,-21.484375
7445,-25.390625
7446,-19.531250
7447,-21.484375
7448,-19.531250
7449,-17.578125
7450,-17.578125
7451,-17.578125
7452,-17.578125
7453,-17.578125
7454,-15.625000
7455,-17.578125
7456,-17.578125
7457,-13.671875
7458,-17.578125
7459,-15.625000
7460,-17.578125
7461,-15.625000
7462,-17.578125
7463,-17.578125
7464,-15.625000
7465,-17.578125
7466,-13.671875
7467,-17.578125
7468,-13.671875
7469,-15.625000
7470,-17.578125
7471,-13.671875
7472,-17.578125
7473,-15.625000
7474,-15.625000
7475,-15.625000
7476,-15.625000
7477,-15.625000
7478,-17.578125
7479,-17.578125
7480,-13.671875
7481,-17.578125
7482,-15.625000
7483,-15.625000
7484,-17.578125
7485,-13.671875
7486,-15.625000
7487,-15.625000
7488,-15.625000
7489,-15.625000
7490,-13.671875
7491,-21.484375
7492,-13.671875
7493,-15.625000
7494,-13.671875
7495,-13.671875
7496,-13.671875
7497,-9.765625
7498,-13.671875
7499,-13.671875
7500,-9.765625
7501,-13.671875
7502,-13.671875
7503,-9.765625
7504,-9.765625
7505,-13.671875
7506,-13.671875
7507,-9.765625
7508,-9.765625
7509,-9.765625
7510,-9.765625
7511,-9.765625
7512,-5.859375
7513,-9.765625
7514,-9.765625
7515,-9.765625
7516,-11.718750
7517,-5.859375
7518,-9.765625
7519,-9.765625
7520,-7.812500
7521,-7.812500
7522,-7.812500
7523,-9.765625
7524,-7.812500
7525,-7.812500
7526,-9.765625
7527,-7.812500
7528,-7.812500
7529,-3.906250
7530,-9.765625
7531,-7.812500
7532,-9.765625
7533,-9.765625
7534,-7.812500
7535,-9.765625
7536,-7.812500
7537,-13.671875
7538,-9.765625
7539,-7.812500
7540,-9.765625
7541,-7.812500
7542,-7.812500
7543,-7.812500
7544,-5.859375
7545,-9.765625
7546,-7.812500
7547,-9.765625
7548,-9.765625
7549,-9.765625
7550,-9.765625
7551,-9.765625
7552,-7.812500
7553,-7.812500
7554,-7.812500
7555,-9.765625
7556,-7.812500
7557,-7.812500
7558,-9.765625
7559,-5.859375
7560,-9.765625
7561,-5.859375
7562,-7.812500
7563,-7.812500
7564,-3.906250
7565,-7.812500
7566,-5.859375
7567,-7.812500
7568,-5.859375
7569,-5.859375
7570,-7.812500
7571,-3.906250
7572,-7.812500
7573,-1.953125
7574,-9.765625
7575,-3.906250
7576,-3.906250
7577,-9.765625
7578,-5.859375
7579,-11.718750
7580,-5.859375
7581,-5.859375
7582,-5.859375
7583,-5.859375
7584,-7.812500
7585,-3.906250
7586,-5.859375
7587,-5.859375
7588,-3.906250
7589,-7.812500
7590,-5.859375
7591,-7.812500
7592,-5.859375
7593,-7.812500
7594,-5.859375
7595,-3.906250
7596,-3.906250
7597,-5.859375
7598,-5.859375
7599,-5.859375
7600,-3.906250
7601,-5.859375
7602,-3.906250
7603,-3.906250
7604,-5.859375
7605,-3.906250
7606,-3.906250
7607,-1.953125
7608,-1.953125
7609,-1.953125
7610,-1.953125
7611,-3.906250
7612,-1.953125
7613,-3.906250
7614,-3.906250
7615,-1.953125
7616,-3.906250
7617,-1.953125
7618,-3.906250
7619,-3.906250
7620,-1.953125
7621,-3.906250
7622,-1.953125
7623,-3.906250
7624,-3.906250
7625,5.859375
7626,-3.906250
7627,-1.953125
7628,-3.906250
7629,-3.906250
7630,-5.859375
7631,-3.906250
7632,-3.906250
7633,-1.953125
7634,-1.953125
7635,-3.906250
7636,-3.906250
7637,-3.906250
7638,-5.859375
7639,-3.906250
7640,-7.812500
7641,-3.906250
7642,-5.859375
7643,-3.906250
7644,-3.906250
7645,-5.859375
7646,-1.953125
7647,-3.906250
7648,-5.859375
7649,-7.812500
7650,-3.906250
7651,-1.953125
7652,-5.859375
7653,-1.953125
7654,-5.859375
7655,-3.906250
7656,-3.906250
7657,-3.906250
7658,-1.953125
7659,-3.906250
7660,-17.578125
7661,-3.906250
7662,-3.906250
7663,-1.953125
7664,-3.906250
7665,-3.906250
7666,-1.953125
7667,-3.906250
7668,-1.953125
7669,-3.906250
7670,-3.906250
7671,-7.812500
7672,-7.812500
7673,-1.953125
7674,-5.859375
7675,-1.953125
7676,-1.953125
7677,-3.906250
7678,-1.953125
7679,-3.906250
7680,-1.953125
7681,-1.953125
7682,-5.859375
7683,-1.953125
7684,-3.906250
7685,-1.953125
7686,-3.906250
7687,-1.953125
7688,-3.906250
7689,-3.906250
7690,-1.953125
7691,-1.953125
7692,-3.906250
7693,-1.953125
7694,-5.859375
7695,-3.906250
7696,-1.953125
7697,-3.906250
7698,-1.953125
7699,-3.906250
7700,-1.953125
7701,0.000000
7702,-3.906250
7703,-1.953125
7704,-3.906250
7705,-5.859375
7706,-1.953125
7707,-3.906250
7708,0.000000
7709,-3.906250
7710,-1.953125
7711,-1.953125
7712,-1.953125
7713,-1.953125
7714,-3.906250
7715,-3.906250
7716,-3.906250
7717,-1.953125
7718,-1.953125
7719,-1.953125
7720,-1.953125
7721,-3.906250
7722,-3.906250
7723,-3.906250
7724,-1.953125
7725,-1.953125
7726,-1.953125
7727,-1.953125
7728,-1.953125
7729,-1.953125
7730,-1.953125
7731,-1.953125
7732,-1.953125
7733,-3.906250
7734,-1.953125
7735,-1.953125
7736,-1.953125
7737,-1.953125
7738,-3.906250
7739,-1.953125
7740,-3.906250
7741,-3.906250
7742,-1.953125
7743,-3.906250
7744,-1.953125
7745,-1.953125
7746,-3.906250
7747,-1.953125
7748,-3.906250
7749,-1.953125
7750,-1.953125
7751,-5.859375
7752,-3.906250
7753,-3.906250
7754,-1.953125
7755,-1.953125
7756,-3.906250
7757,-1.953125
7758,-1.953125
7759,-1.953125
7760,-3.906250
7761,-3.906250
7762,-3.906250
7763,-3.906250
7764,-1.953125
7765,-3.906250
7766,-1.953125
7767,-1.953125
7768,-3.906250
7769,-1.953125
7770,-1.953125
7771,-1.953125
7772,-1.953125
7773,-1.953125
7774,-1.953125
7775,-3.906250
7776,-1.953125
7777,-3.906250
7778,-3.906250
7779,-1.953125
7780,-3.906250
7781,-1.953125
7782,-3.906250
7783,-1.953125
7784,-7.812500
7785,-1.953125
7786,-1.953125
7787,-3.906250
7788,-3.906250
7789,-1.953125
7790,-3.906250
7791,-1.953125
7792,-1.953125
7793,-5.859375
7794,-1.953125
7795,-3.906250
7796,-1.953125
7797,-3.906250
7798,-3.906250
7799,-1.953125
7800,-5.859375
7801,-1.953125
7802,-3.906250
7803,-1.953125
7804,-3.906250
7805,-3.906250
7806,-1.953125
7807,-3.906250
7808,-1.953125
7809,-3.906250
7810,-1.953125
7811,-1.953125
7812,-3.906250
7813,-1.953125
7814,-7.812500
7815,-3.906250
7816,-1.953125
7817,-1.953125
7818,-1.953125
7819,-1.953125
7820,-3.906250
7821,-1.953125
7822,-19.531250
7823,13.671875
7824,-1.953125
7825,-3.906250
7826,-1.953125
7827,-5.859375
7828,-1.953125
7829,-3.906250
7830,-1.953125
7831,-3.906250
7832,-3.906250
7833,-1.953125
7834,-3.906250
7835,-3.906250
7836,-5.859375
7837,-3.906250
7838,-1.953125
7839,-7.812500
7840,-1.953125
7841,-3.906250
7842,-1.953125
7843,0.000000
7844,-3.906250
7845,-3.906250
7846,-3.906250
7847,-3.906250
7848,-3.906250
7849,-5.859375
7850,-3.906250
7851,-1.953125
7852,-1.953125
7853,-3.906250
7854,-3.906250
7855,-1.953125
7856,-3.906250
7857,-3.906250
7858,-1.953125
7859,-3.906250
7860,-3.906250
7861,-3.906250
7862,-1.953125
7863,-5.859375
7864,-3.906250
7865,-1.953125
7866,-3.906250
7867,-1.953125
7868,-1.953125
7869,-3.906250
7870,-1.953125
7871,-3.906250
7872,-3.906250
7873,-3.906250
7874,-3.906250
7875,-1.953125
7876,-3.906250
7877,-3.906250
7878,-1.953125
7879,-3.906250
7880,-3.906250
7881,-9.765625
7882,-3.906250
7883,-5.859375
7884,-1.953125
7885,-7.812500
7886,-5.859375
7887,-1.953125
7888,-5.859375
7889,-1.953125
7890,-5.859375
7891,-5.859375
7892,-3.906250
7893,-7.812500
7894,-5.859375
7895,-3.906250
7896,-3.906250
7897,-3.906250
7898,-9.765625
7899,-3.906250
7900,-7.812500
7901,-3.906250
7902,-5.859375
7903,-3.906250
7904,-5.859375
7905,-7.812500
7906,-1.953125
7907,-9.765625
7908,-3.906250
7909,-5.859375
7910,-3.906250
7911,-3.906250
7912,-5.859375
7913,-1.953125
7914,-9.765625
7915,-3.906250
7916,-5.859375
7917,-9.765625
7918,-3.906250
7919,-7.812500
7920,-3.906250
7921,-7.812500
7922,-5.859375
7923,-5.859375
7924,-9.765625
7925,-3.906250
7926,-5.859375
7927,-5.859375
7928,-7.812500
7929,-5.859375
7930,-7.812500
7931,-3.906250
7932,-9.765625
7933,-7.812500
7934,-7.812500
7935,-9.765625
7936,-9.765625
7937,-9.765625
7938,-9.765625
7939,-15.625000
7940,-9.765625
7941,-7.812500
7942,-9.765625
7943,-9.765625
7944,-11.718750
7945,-5.859375
7946,-9.765625
7947,-9.765625
7948,-9.765625
7949,-9.765625
7950,-9.765625
7951,-11.718750
7952,-9.765625
7953,-9.765625
7954,-9.765625
7955,-7.812500
7956,-1.953125
7957,-9.765625
7958,-9.765625
7959,-9.765625
7960,-9.765625
7961,-9.765625
7962,-9.765625
7963,-13.671875
7964,-9.765625
7965,-11.718750
7966,-13.671875
7967,-9.765625
7968,-15.625000
7969,-13.671875
7970,-13.671875
7971,-15.625000
7972,-13.671875
7973,-13.671875
7974,-9.765625
7975,-17.578125
7976,-13.671875
7977,-13.671875
7978,-13.671875
7979,-13.671875
7980,-17.578125
7981,-15.625000
7982,-17.578125
7983,-17.578125
7984,-15.625000
7985,-19.531250
7986,-15.625000
7987,-19.531250
7988,-17.578125
7989,-17.578125
7990,-19.531250
7991,-17.578125
7992,-19.531250
7993,-19.531250
7994,-25.390625
7995,-19.531250
7996,-19.531250
7997,-23.437500
7998,-19.531250
7999,-23.437500
8000,-23.437500
8001,-23.437500
8002,-23.437500
8003,-21.484375
8004,-25.390625
8005,-25.390625
8006,-23.437500
8007,-25.390625
8008,-23.437500
8009,-25.390625
8010,-27.343750
8011,-29.296875
8012,-29.296875
8013,-29.296875
8014,-27.343750
8015,-33.203125
8016,-29.296875
8017,-29.296875
8018,-29.296875
8019,-31.250000
8020,-29.296875
8021,-29.296875
8022,-31.250000
8023,-29.296875
8024,-31.250000
8025,-29.296875
8026,-31.250000
8027,-31.250000
8028,-29.296875
8029,-35.156250
8030,-33.203125
8031,-35.156250
8032,-31.250000
8033,-33.203125
8034,-35.156250
8035,-33.203125
8036,-35.156250
8037,-33.203125
8038,-33.203125
8039,-29.296875
8040,-33.203125
8041,-35.156250
8042,-33.203125
8043,-35.156250
8044,-37.109375
8045,-35.156250
8046,-37.109375
8047,-35.156250
8048,-37.109375
8049,-35.156250
8050,-39.062500
8051,-35.156250
8052,-35.156250
8053,-41.015625
8054,-39.062500
8055,-41.015625
8056,-39.062500
8057,-39.062500
8058,-41.015625
8059,-39.062500
8060,-41.015625
8061,-41.015625
8062,-41.015625
8063,-41.015625
8064,-41.015625
8065,-42.968750
8066,-44.921875
8067,-44.921875
8068,-44.921875
8069,-44.921875
8070,-41.015625
8071,-44.921875
8072,-46.875000
8073,-44.921875
8074,-44.921875
8075,-50.781250
8076,-46.875000
8077,-50.781250
8078,-48.828125
8079,-52.734375
8080,-48.828125
8081,-48.828125
8082,-50.781250
8083,-48.828125
8084,-50.781250
8085,-48.828125
8086,-50.781250
8087,-54.687500
8088,-52.734375
8089,-52.734375
8090,-52.734375
8091,-52.734375
8092,-56.640625
8093,-54.687500
8094,-56.640625
8095,-54.687500
8096,-54.687500
8097,-56.640625
8098,-54.687500
8099,-56.640625
8100,-56.640625
8101,-54.687500
8102,-54.687500
8103,-54.687500
8104,-56.640625
8105,-52.734375
8106,-56.640625
8107,-56.640625
8108,-56.640625
8109,-56.640625
8110,-56.640625
8111,-52.734375
8112,-56.640625
8113,-56.640625
8114,-56.640625
8115,-56.640625
8116,-56.640625
8117,-56.640625
8118,-56.640625
8119,-56.640625
8120,-56.640625
8121,-58.593750
8122,-56.640625
8123,-56.640625
8124,-56.640625
8125,-56.640625
8126,-56.640625
8127,-56.640625
8128,-64.453125
8129,-54.687500
8130,-58.593750
8131,-56.640625
8132,-54.687500
8133,-56.640625
8134,-52.734375
8135,-58.593750
8136,-56.640625
8137,-56.640625
8138,-56.640625
8139,-56.640625
8140,-56.640625
8141,-56.640625
8142,-56.640625
8143,-56.640625
8144,-60.546875
8145,-56.640625
8146,-54.687500
8147,-56.640625
8148,-56.640625
8149,-54.687500
8150,-56.640625
8151,-56.640625
8152,-56.640625
8153,-56.640625
8154,-56.640625
8155,-56.640625
8156,-60.546875
8157,-56.640625
8158,-54.687500
8159,-60.546875
8160,-56.640625
8161,-58.593750
8162,-56.640625
8163,-56.640625
8164,-56.640625
8165,-54.687500
8166,-60.546875
8167,-60.546875
8168,-56.640625
8169,-60.546875
8170,-56.640625
8171,-60.546875
8172,-60.546875
8173,-60.546875
8174,-60.546875
8175,-58.593750
8176,-56.640625
8177,-60.546875
8178,-62.500000
8179,-64.453125
8180,-56.640625
8181,-60.546875
8182,-62.500000
8183,-60.546875
8184,-64.453125
8185,-60.546875
8186,-62.500000
8187,-60.546875
8188,-60.546875
8189,-64.453125
8190,-60.546875
8191,-64.453125
8192,-60.546875
8193,-62.500000
8194,-62.500000
8195,-66.406250
8196,-64.453125
8197,-60.546875
8198,-64.453125
8199,-62.500000
8200,-60.546875
8201,-64.453125
8202,-60.546875
8203,-64.453125
8204,-62.500000
8205,-64.453125
8206,-60.546875
8207,-64.453125
8208,-64.453125
8209,-64.453125
8210,-60.546875
8211,-62.500000
8212,-62.500000
8213,-60.546875
8214,-62.500000
8215,-62.500000
8216,-64.453125
8217,-62.500000
8218,-64.453125
8219,-64.453125
8220,-60.546875
8221,-64.453125
8222,-60.546875
8223,-64.453125
8224,-64.453125
8225,-62.500000
8226,-64.453125
8227,-60.546875
8228,-64.453125
8229,-64.453125
8230,-64.453125
8231,-64.453125
8232,-62.500000
8233,-66.406250
8234,-62.500000
8235,-64.453125
8236,-64.453125
8237,-60.546875
8238,-62.500000
8239,-62.500000
8240,-64.453125
8241,-60.546875
8242,-64.453125
8243,-64.453125
8244,-60.546875
8245,-64.453125
8246,-64.453125
8247,-62.500000
8248,-62.500000
8249,-62.500000
8250,-62.500000
8251,-60.546875
8252,-62.500000
8253,-60.546875
8254,-62.500000
8255,-60.546875
8256,-60.546875
8257,-64.453125
8258,-54.687500
8259,-60.546875
8260,-64.453125
8261,-64.453125
8262,-60.546875
8263,-60.546875
8264,-58.593750
8265,-58.593750
8266,-60.546875
8267,-60.546875
8268,-60.546875
8269,-56.640625
8270,-60.546875
8271,-54.687500
8272,-58.593750
8273,-56.640625
8274,-56.640625
8275,-56.640625
8276,-54.687500
8277,-56.640625
8278,-54.687500
8279,-52.734375
8280,-52.734375
8281,-48.828125
8282,-50.781250
8283,-52.734375
8284,-52.734375
8285,-50.781250
8286,-48.828125
8287,-48.828125
8288,-48.828125
8289,-48.828125
8290,-48.828125
8291,-48.828125
8292,-56.640625
8293,-46.875000
8294,-46.875000
8295,-46.875000
8296,-44.921875
8297,-44.921875
8298,-44.921875
8299,-44.921875
8300,-44.921875
8301,-44.921875
8302,-44.921875
8303,-44.921875
8304,-44.921875
8305,-41.015625
8306,-44.921875
8307,-44.921875
8308,-41.015625
8309,-44.921875
8310,-41.015625
8311,-41.015625
8312,-42.968750
8313,-41.015625
8314,-41.015625
8315,-41.015625
8316,-41.015625
8317,-56.640625
8318,-42.968750
8319,-41.015625
8320,-39.062500
8321,-39.062500
8322,-37.109375
8323,-41.015625
8324,-39.062500
8325,-39.062500
8326,-41.015625
8327,-35.156250
8328,-41.015625
8329,-39.062500
8330,-37.109375
8331,-39.062500
8332,-35.156250
8333,-41.015625
8334,-37.109375
8335,-41.015625
8336,-41.015625
8337,-39.062500
8338,-44.921875
8339,-37.109375
8340,-41.015625
8341,-39.062500
8342,-41.015625
8343,-37.109375
8344,-39.062500
8345,-44.921875
8346,-29.296875
8347,-37.109375
8348,-39.062500
8349,-35.156250
8350,-35.156250
8351,-31.250000
8352,-35.156250
8353,-33.203125
8354,-31.250000
8355,-33.203125
8356,-31.250000
8357,-31.250000
8358,-31.250000
8359,-31.250000
8360,-33.203125
8361,-33.203125
8362,-33.203125
8363,-29.296875
8364,-33.203125
8365,-37.109375
8366,-33.203125
8367,-33.203125
8368,-35.156250
8369,-33.203125
8370,-37.109375
8371,-35.156250
8372,-39.062500
8373,-39.062500
8374,-37.109375
8375,-41.015625
8376,-37.109375
8377,-41.015625
8378,-39.062500
8379,-41.015625
8380,-41.015625
8381,-41.015625
8382,-41.015625
8383,-41.015625
8384,-41.015625
8385,-41.015625
8386,-41.015625
8387,-41.015625
8388,-44.921875
8389,-42.968750
8390,-41.015625
8391,-44.921875
8392,-42.968750
8393,-41.015625
8394,-44.921875
8395,-41.015625
8396,-42.968750
8397,-41.015625
8398,-41.015625
8399,-44.921875
8400,-41.015625
8401,-41.015625
8402,-41.015625
8403,-44.921875
8404,-39.062500
8405,-44.921875
8406,-41.015625
8407,-41.015625
8408,-44.921875
8409,-39.062500
8410,-41.015625
8411,-41.015625
8412,-39.062500
8413,-41.015625
8414,-41.015625
8415,-41.015625
8416,-41.015625
8417,-41.015625
8418,-42.968750
8419,-39.062500
8420,-41.015625
8421,-39.062500
8422,-41.015625
8423,-41.015625
8424,-41.015625
8425,-42.968750
8426,-41.015625
8427,-41.015625
8428,-42.968750
8429,-41.015625
8430,-41.015625
8431,-41.015625
8432,-41.015625
8433,-41.015625
8434,-56.640625
8435,-41.015625
8436,-35.156250
8437,-39.062500
8438,-41.015625
8439,-37.109375
8440,-37.109375
8441,-41.015625
8442,-41.015625
8443,-41.015625
8444,-29.296875
8445,-41.015625
8446,-39.062500
8447,-37.109375
8448,-37.109375
8449,-33.203125
8450,-35.156250
8451,-37.109375
8452,-33.203125
8453,-33.203125
8454,-33.203125
8455,-37.109375
8456,-33.203125
8457,-31.250000
8458,-33.203125
8459,-29.296875
8460,-31.250000
8461,-29.296875
8462,-31.250000
8463,-29.296875
8464,-29.296875
8465,-29.296875
8466,-27.343750
8467,-29.296875
8468,-29.296875
8469,-25.390625
8470,-27.343750
8471,-25.390625
8472,-23.437500
8473,-29.296875
8474,-23.437500
8475,-27.343750
8476,-21.484375
8477,-29.296875
8478,-25.390625
8479,-25.390625
8480,-25.390625
8481,-23.437500
8482,-29.296875
8483,-23.437500
8484,-25.390625
8485,-25.390625
8486,-23.437500
8487,-25.390625
8488,-21.484375
8489,-27.343750
8490,-23.437500
8491,-25.390625
8492,-23.437500
8493,-23.437500
8494,-25.390625
8495,-23.437500
8496,-29.296875
8497,-25.390625
8498,-23.437500
8499,-25.390625
8500,-23.437500
8501,-23.437500
8502,-25.390625
8503,-23.437500
8504,-39.062500
8505,-23.437500
8506,-19.531250
8507,-25.390625
8508,-23.437500
8509,-23.437500
8510,-23.437500
8511,-21.484375
8512,-23.437500
8513,-21.484375
8514,-23.437500
8515,-23.437500
8516,-23.437500
8517,-23.437500
8518,-23.437500
8519,-23.437500
8520,-21.484375
8521,-21.484375
8522,-17.578125
8523,-19.531250
8524,-25.390625
8525,-19.531250
8526,-23.437500
8527,-23.437500
8528,-21.484375
8529,-23.437500
8530,-19.531250
8531,-19.531250
8532,-23.437500
8533,-23.437500
8534,-23.437500
8535,-21.484375
8536,-25.390625
8537,-19.531250
8538,-23.437500
8539,-23.437500
8540,-19.531250
8541,-25.390625
8542,-21.484375
8543,-23.437500
8544,-25.390625
8545,-21.484375
8546,-23.437500
8547,-21.484375
8548,-21.484375
8549,-25.390625
8550,-21.484375
8551,-25.390625
8552,-17.578125
8553,-21.484375
8554,-23.437500
8555,-17.578125
8556,-23.437500
8557,-19.531250
8558,-21.484375
8559,-21.484375
8560,-19.531250
8561,-23.437500
8562,-21.484375
8563,-21.484375
8564,-25.390625
8565,-21.484375
8566,-21.484375
8567,-19.531250
8568,-23.437500
8569,-25.390625
8570,-21.484375
8571,-23.437500
8572,-19.531250
8573,-21.484375
8574,-19.531250
8575,-21.484375
8576,-23.437500
8577,-19.531250
8578,-23.437500
8579,-21.484375
8580,-21.484375
8581,-21.484375
8582,-21.484375
8583,-21.484375
8584,-19.531250
8585,-25.390625
8586,-21.484375
8587,-23.437500
8588,-21.484375
8589,-23.437500
8590,-25.390625
8591,-21.484375
8592,-25.390625
8593,-21.484375
8594,-23.437500
8595,-25.390625
8596,-23.437500
8597,-25.390625
8598,-27.343750
8599,-25.390625
8600,-25.390625
8601,-23.437500
8602,-23.437500
8603,-25.390625
8604,-23.437500
8605,-29.296875
8606,-25.390625
8607,-25.390625
8608,-23.437500
8609,-25.390625
8610,-33.203125
8611,-19.531250
8612,-25.390625
8613,-21.484375
8614,-21.484375
8615,-23.437500
8616,-19.531250
8617,-23.437500
8618,-17.578125
8619,-17.578125
8620,-19.531250
8621,-19.531250
8622,-23.437500
8623,-21.484375
8624,-19.531250
8625,-17.578125
8626,-19.531250
8627,-23.437500
8628,-17.578125
8629,-19.531250
8630,-17.578125
8631,-33.203125
8632,-21.484375
8633,-17.578125
8634,-19.531250
8635,-17.578125
8636,-17.578125
8637,-17.578125
8638,-17.578125
8639,-17.578125
8640,-17.578125
8641,-19.531250
8642,-15.625000
8643,-19.531250
8644,-15.625000
8645,-19.531250
8646,-17.578125
8647,-19.531250
8648,-15.625000
8649,-21.484375
8650,-19.531250
8651,-19.531250
8652,-11.718750
8653,-21.484375
8654,-17.578125
8655,-17.578125
8656,-17.578125
8657,-15.625000
8658,-19.531250
8659,-17.578125
8660,-21.484375
8661,-17.578125
8662,-17.578125
8663,-17.578125
8664,-13.671875
8665,-17.578125
8666,-17.578125
8667,-17.578125
8668,-17.578125
8669,-17.578125
8670,-17.578125
8671,-17.578125
8672,-17.578125
8673,-19.531250
8674,-15.625000
8675,-19.531250
8676,-13.671875
8677,-17.578125
8678,-17.578125
8679,-17.578125
8680,-17.578125
8681,-19.531250
8682,-17.578125
8683,-17.578125
8684,-17.578125
8685,-17.578125
8686,-19.531250
8687,-15.625000
8688,-17.578125
8689,-17.578125
8690,-17.578125
8691,-17.578125
8692,-15.625000
8693,-19.531250
8694,-11.718750
8695,-17.578125
8696,-13.671875
8697,-17.578125
8698,-17.578125
8699,-13.671875
8700,-13.671875
8701,-15.625000
8702,-13.671875
8703,-15.625000
8704,-13.671875
8705,-17.578125
8706,-13.671875
8707,-11.718750
8708,-13.671875
8709,-9.765625
8710,-15.625000
8711,-9.765625
8712,-13.671875
8713,-9.765625
8714,-9.765625
8715,-15.625000
8716,-9.765625
8717,-13.671875
8718,-9.765625
8719,-9.765625
8720,-13.671875
8721,-9.765625
8722,-11.718750
8723,-9.765625
8724,-9.765625
8725,-9.765625
8726,-9.765625
8727,-11.718750
8728,-13.671875
8729,-11.718750
8730,-9.765625
8731,-9.765625
8732,-13.671875
8733,-9.765625
8734,-9.765625
8735,-13.671875
8736,-11.718750
8737,-9.765625
8738,-9.765625
8739,-9.765625
8740,-5.859375
8741,-9.765625
8742,-9.765625
8743,-7.812500
8744,-9.765625
8745,-7.812500
8746,-9.765625
8747,-9.765625
8748,-9.765625
8749,-9.765625
8750,-9.765625
8751,-9.765625
8752,-9.765625
8753,-9.765625
8754,-9.765625
8755,-7.812500
8756,-13.671875
8757,-9.765625
8758,-9.765625
8759,-9.765625
8760,-7.812500
8761,-7.812500
8762,-9.765625
8763,-9.765625
8764,-9.765625
8765,7.812500
8766,-13.671875
8767,-9.765625
8768,-9.765625
8769,-9.765625
8770,-5.859375
8771,-9.765625
8772,-9.765625
8773,-9.765625
8774,-9.765625
8775,-9.765625
8776,-11.718750
8777,-7.812500
8778,-9.765625
8779,-9.765625
8780,-9.765625
8781,-9.765625
8782,-9.765625
8783,-13.671875
8784,-9.765625
8785,-11.718750
8786,-7.812500
8787,-11.718750
8788,-9.765625
8789,-7.812500
8790,-13.671875
8791,-9.765625
8792,-13.671875
8793,-9.765625
8794,-9.765625
8795,-9.765625
8796,-9.765625
8797,-9.765625
8798,-9.765625
8799,-13.671875
8800,-9.765625
8801,-9.765625
8802,-7.812500
8803,-9.765625
8804,-9.765625
8805,-9.765625
8806,-9.765625
8807,-3.906250
8808,-9.765625
8809,-7.812500
8810,-9.765625
8811,-9.765625
8812,-9.765625
8813,-9.765625
8814,-1.953125
8815,-9.765625
8816,-9.765625
8817,-9.765625
8818,-9.765625
8819,-5.859375
8820,-9.765625
8821,-7.812500
8822,-9.765625
8823,-9.765625
8824,-9.765625
8825,-9.765625
8826,-7.812500
8827,-9.765625
8828,-21.484375
8829,-9.765625
8830,-9.765625
8831,-9.765625
8832,-9.765625
8833,-7.812500
8834,-11.718750
8835,-7.812500
8836,-9.765625
8837,-13.671875
8838,-9.765625
8839,-9.765625
8840,-9.765625
8841,-9.765625
8842,-9.765625
8843,-9.765625
8844,-13.671875
8845,-9.765625
8846,-13.671875
8847,-9.765625
8848,-13.671875
8849,-9.765625
8850,-9.765625
8851,-11.718750
8852,-9.765625
8853,-9.765625
8854,-13.671875
8855,-9.765625
8856,-11.718750
8857,-9.765625
8858,-13.671875
8859,-9.765625
8860,-9.765625
8861,-9.765625
8862,-9.765625
8863,-13.671875
8864,-9.765625
8865,-9.765625
8866,-13.671875
8867,-13.671875
8868,-11.718750
8869,-13.671875
8870,-7.812500
8871,-17.578125
8872,-13.671875
8873,-13.671875
8874,-13.671875
8875,-13.671875
8876,-15.625000
8877,-13.671875
8878,-17.578125
8879,-13.671875
8880,-17.578125
8881,-15.625000
8882,-13.671875
8883,-17.578125
8884,-17.578125
8885,-19.531250
8886,-17.578125
8887,-17.578125
8888,-19.531250
8889,-17.578125
8890,-19.531250
8891,-21.484375
8892,-23.437500
8893,-19.531250
8894,-21.484375
8895,-23.437500
8896,-23.437500
8897,-21.484375
8898,-21.484375
8899,-25.390625
8900,-25.390625
8901,-23.437500
8902,-25.390625
8903,-25.390625
8904,-25.390625
8905,-23.437500
8906,-25.390625
8907,-23.437500
8908,-21.484375
8909,-25.390625
8910,-23.437500
8911,-25.390625
8912,-23.437500
8913,-23.437500
8914,-25.390625
8915,-23.437500
8916,-25.390625
8917,-25.390625
8918,-25.390625
8919,-25.390625
8920,-25.390625
8921,-29.296875
8922,-23.437500
8923,-29.296875
8924,-23.437500
8925,-25.390625
8926,-25.390625
8927,-23.437500
8928,-25.390625
8929,-23.437500
8930,-25.390625
8931,-25.390625
8932,-23.437500
8933,-25.390625
8934,-21.484375
8935,-25.390625
8936,-25.390625
8937,-25.390625
8938,-25.390625
8939,-23.437500
8940,-27.343750
8941,-23.437500
8942,-23.437500
8943,-25.390625
8944,-23.437500
8945,-25.390625
8946,-23.437500
8947,-25.390625
8948,-25.390625
8949,-25.390625
8950,-25.390625
8951,-25.390625
8952,-25.390625
8953,-27.343750
8954,-15.625000
8955,-25.390625
8956,-25.390625
8957,-27.343750
8958,-25.390625
8959,-25.390625
8960,-25.390625
8961,-25.390625
8962,-25.390625
8963,-23.437500
8964,-25.390625
8965,-29.296875
8966,-25.390625
8967,-29.296875
8968,-25.390625
8969,-25.390625
8970,-29.296875
8971,-27.343750
8972,-29.296875
8973,-27.343750
8974,-29.296875
8975,-29.296875
8976,-23.437500
8977,-31.250000
8978,-27.343750
8979,-33.203125
8980,-29.296875
8981,-29.296875
8982,-31.250000
8983,-29.296875
8984,-33.203125
8985,-29.296875
8986,-31.250000
8987,-31.250000
8988,-29.296875
8989,-33.203125
8990,-31.250000
8991,-31.250000
8992,-29.296875
8993,-31.250000
8994,-31.250000
8995,-29.296875
8996,-33.203125
8997,-29.296875
8998,-31.250000
8999,-31.250000
9000,-23.437500
9001,-31.250000
9002,-29.296875
9003,-29.296875
9004,-29.296875
9005,-29.296875
9006,-29.296875
9007,-27.343750
9008,-31.250000
9009,-25.390625
9010,-29.296875
9011,-29.296875
9012,-29.296875
9013,-33.203125
9014,-25.390625
9015,-31.250000
9016,-29.296875
9017,-27.343750
9018,-29.296875
9019,-25.390625
9020,-31.250000
9021,-13.671875
9022,-29.296875
9023,-29.296875
9024,-31.250000
9025,-29.296875
9026,-25.390625
9027,-29.296875
9028,-25.390625
9029,-27.343750
9030,-29.296875
9031,-27.343750
9032,-31.250000
9033,-33.203125
9034,-29.296875
9035,-29.296875
9036,-29.296875
9037,-29.296875
9038,-29.296875
9039,-31.250000
9040,-29.296875
9041,-29.296875
9042,-29.296875
9043,-29.296875
9044,-33.203125
9045,-29.296875
9046,-29.296875
9047,-33.203125
9048,-33.203125
9049,-31.250000
9050,-33.203125
9051,-21.484375
9052,-31.250000
9053,-33.203125
9054,-33.203125
9055,-29.296875
9056,-29.296875
9057,-31.250000
9058,-33.203125
9059,-33.203125
9060,-31.250000
9061,-33.203125
9062,-31.250000
9063,-31.250000
9064,-33.203125
9065,-33.203125
9066,-33.203125
9067,-21.484375
9068,-33.203125
9069,-33.203125
9070,-33.203125
9071,-35.156250
9072,-33.203125
9073,-35.156250
9074,-33.203125
9075,-33.203125
9076,-37.109375
9077,-33.203125
9078,-37.109375
9079,-37.109375
9080,-35.156250
9081,-39.062500
9082,-35.156250
9083,-39.062500
9084,-41.015625
9085,-39.062500
9086,-41.015625
9087,-39.062500
9088,-48.828125
9089,-39.062500
9090,-41.015625
9091,-39.062500
9092,-41.015625
9093,-41.015625
9094,-41.015625
9095,-44.921875
9096,-41.015625
9097,-46.875000
9098,-44.921875
9099,-41.015625
9100,-44.921875
9101,-41.015625
9102,-44.921875
9103,-44.921875
9104,-41.015625
9105,-41.015625
9106,-41.015625
9107,-44.921875
9108,-42.968750
9109,-44.921875
9110,-44.921875
9111,-41.015625
9112,-44.921875
9113,-41.015625
9114,-44.921875
9115,-41.015625
9116,-41.015625
9117,-44.921875
9118,-44.921875
9119,-42.968750
9120,-41.015625
9121,-41.015625
9122,-41.015625
9123,-41.015625
9124,-41.015625
9125,-41.015625
9126,-39.062500
9127,-41.015625
9128,-41.015625
9129,-41.015625
9130,-41.015625
9131,-42.968750
9132,-41.015625
9133,-41.015625
9134,-41.015625
9135,-41.015625
9136,-41.015625
9137,-41.015625
9138,-41.015625
9139,-41.015625
9140,-41.015625
9141,-41.015625
9142,-41.015625
9143,-35.156250
9144,-41.015625
9145,-41.015625
9146,-42.968750
9147,-42.968750
9148,-39.062500
9149,-41.015625
9150,-41.015625
9151,-44.921875
9152,-41.015625
9153,-41.015625
9154,-39.062500
9155,-29.296875
9156,-41.015625
9157,-39.062500
9158,-41.015625
9159,-39.062500
9160,-39.062500
9161,-41.015625
9162,-39.062500
9163,-41.015625
9164,-41.015625
9165,-41.015625
9166,-39.062500
9167,-41.015625
9168,-39.062500
9169,-39.062500
9170,-41.015625
9171,-37.109375
9172,-41.015625
9173,-37.109375
9174,-39.062500
9175,-41.015625
9176,-37.109375
9177,-41.015625
9178,-39.062500
9179,-39.062500
9180,-41.015625
9181,-39.062500
9182,-41.015625
9183,-39.062500
9184,-39.062500
9185,-37.109375
9186,-37.109375
9187,-37.109375
9188,-39.062500
9189,-35.156250
9190,-39.062500
9191,-37.109375
9192,-35.156250
9193,-35.156250
9194,-35.156250
9195,-35.156250
9196,-33.203125
9197,-33.203125
9198,-33.203125
9199,-33.203125
9200,-35.156250
9201,-29.296875
9202,-33.203125
9203,-31.250000
9204,-33.203125
9205,-31.250000
9206,-31.250000
9207,-33.203125
9208,-31.250000
9209,-31.250000
9210,-31.250000
9211,-27.343750
9212,-31.250000
9213,-29.296875
9214,-29.296875
9215,-29.296875
9216,-25.390625
9217,-29.296875
9218,-23.437500
9219,-27.343750
9220,-25.390625
9221,-25.390625
9222,-25.390625
9223,-25.390625
9224,-25.390625
9225,-19.531250
9226,-15.625000
9227,-21.484375
9228,-23.437500
9229,-23.437500
9230,-19.531250
9231,-23.437500
9232,-21.484375
9233,-21.484375
9234,-17.578125
9235,-19.531250
9236,-19.531250
9237,-19.531250
9238,-19.531250
9239,-21.484375
9240,-17.578125
9241,-21.484375
9242,-17.578125
9243,-13.671875
9244,-17.578125
9245,-17.578125
9246,-17.578125
9247,-31.250000
9248,-13.671875
9249,-15.625000
9250,-13.671875
9251,-15.625000
9252,-13.671875
9253,-13.671875
9254,-13.671875
9255,-13.671875
9256,-9.765625
9257,-9.765625
9258,-9.765625
9259,-13.671875
9260,-9.765625
9261,-9.765625
9262,-9.765625
9263,-9.765625
9264,-9.765625
9265,-5.859375
9266,-11.718750
9267,-7.812500
9268,-9.765625
9269,-9.765625
9270,-5.859375
9271,-9.765625
9272,-7.812500
9273,-13.671875
9274,-11.718750
9275,-13.671875
9276,-13.671875
9277,-13.671875
9278,-15.625000
9279,-17.578125
9280,-17.578125
9281,-15.625000
9282,-17.578125
9283,-19.531250
9284,-19.531250
9285,-19.531250
9286,-19.531250
9287,-23.437500
9288,-21.484375
9289,-25.390625
9290,-25.390625
9291,-23.437500
9292,-25.390625
9293,-21.484375
9294,-25.390625
9295,-29.296875
9296,-25.390625
9297,-27.343750
9298,-25.390625
9299,-25.390625
9300,-27.343750
9301,-25.390625
9302,-29.296875
9303,-25.390625
9304,-25.390625
9305,-25.390625
9306,-29.296875
9307,-27.343750
9308,-25.390625
9309,-29.296875
9310,-23.437500
9311,-23.437500
9312,-23.437500
9313,-21.484375
9314,-23.437500
9315,-21.484375
9316,-21.484375
9317,-19.531250
9318,-19.531250
9319,-23.437500
9320,-17.578125
9321,-21.484375
9322,-15.625000
9323,-17.578125
9324,-15.625000
9325,-17.578125
9326,-17.578125
9327,-17.578125
9328,-17.578125
9329,-13.671875
9330,-17.578125
9331,-13.671875
9332,-13.671875
9333,-13.671875
9334,-9.765625
9335,-17.578125
9336,-13.671875
9337,-13.671875
9338,-9.765625
9339,-13.671875
9340,-13.671875
9341,-9.765625
9342,-13.671875
9343,-11.718750
9344,-9.765625
9345,-13.671875
9346,-9.765625
9347,-13.671875
9348,-9.765625
9349,-9.765625
9350,-9.765625
9351,-9.765625
9352,-9.765625
9353,-9.765625
9354,-9.765625
9355,-9.765625
9356,-9.765625
9357,-9.765625
9358,-9.765625
9359,-9.765625
9360,-9.765625
9361,-5.859375
9362,-9.765625
9363,-9.765625
9364,-9.765625
9365,-7.812500
9366,-7.812500
9367,-9.765625
9368,-13.671875
9369,-9.765625
9370,-7.812500
9371,-7.812500
9372,-9.765625
9373,-5.859375
9374,-7.812500
9375,-7.812500
9376,-7.812500
9377,-9.765625
9378,-9.765625
9379,-9.765625
9380,-7.812500
9381,-7.812500
9382,-7.812500
9383,-7.812500
9384,-9.765625
9385,-7.812500
9386,-9.765625
9387,-9.765625
9388,-9.765625
9389,-9.765625
9390,-7.812500
9391,-9.765625
9392,-9.765625
9393,-9.765625
9394,-9.765625
9395,-9.765625
9396,-9.765625
9397,-7.812500
9398,-5.859375
9399,-5.859375
9400,-7.812500
9401,-13.671875
9402,-7.812500
9403,-9.765625
9404,-7.812500
9405,-13.671875
9406,-9.765625
9407,-9.765625
9408,-9.765625
9409,-5.859375
9410,-13.671875
9411,-9.765625
9412,-13.671875
9413,-9.765625
9414,-13.671875
9415,-13.671875
9416,-9.765625
9417,-15.625000
9418,-11.718750
9419,-13.671875
9420,-13.671875
9421,-13.671875
9422,-17.578125
9423,-9.765625
9424,-17.578125
9425,-15.625000
9426,-13.671875
9427,-13.671875
9428,-13.671875
9429,-13.671875
9430,-15.625000
9431,-13.671875
9432,-13.671875
9433,-15.625000
9434,-13.671875
9435,-15.625000
9436,-13.671875
9437,-13.671875
9438,-13.671875
9439,-11.718750
9440,-15.625000
9441,-13.671875
9442,-15.625000
9443,-13.671875
9444,-9.765625
9445,-15.625000
9446,-9.765625
9447,-13.671875
9448,-9.765625
9449,-13.671875
9450,-13.671875
9451,-9.765625
9452,-13.671875
9453,-9.765625
9454,-9.765625
9455,-13.671875
9456,-9.765625
9457,-13.671875
9458,-13.671875
9459,-13.671875
9460,-13.671875
9461,-9.765625
9462,-13.671875
9463,-9.765625
9464,-9.765625
9465,-13.671875
9466,-9.765625
9467,-11.718750
9468,-13.671875
9469,-11.718750
9470,-15.625000
9471,-9.765625
9472,-13.671875
9473,-11.718750
9474,-11.718750
9475,-9.765625
9476,-9.765625
9477,-11.718750
9478,-9.765625
9479,-9.765625
9480,-9.765625
9481,-9.765625
9482,-13.671875
9483,-9.765625
9484,-9.765625
9485,-9.765625
9486,-11.718750
9487,-9.765625
9488,-9.765625
9489,-9.765625
9490,-7.812500
9491,-9.765625
9492,-9.765625
9493,-9.765625
9494,-9.765625
9495,-7.812500
9496,-9.765625
9497,-7.812500
9498,-9.765625
9499,-3.906250
9500,-5.859375
9501,-5.859375
9502,-7.812500
9503,-5.859375
9504,-9.765625
9505,-7.812500
9506,-7.812500
9507,-5.859375
9508,-3.906250
9509,-9.765625
9510,-5.859375
9511,5.859375
9512,-7.812500
9513,-5.859375
9514,-7.812500
9515,-3.906250
9516,-5.859375
9517,-7.812500
9518,-7.812500
9519,-7.812500
9520,-3.906250
9521,-7.812500
9522,-3.906250
9523,-9.765625
9524,-3.906250
9525,-5.859375
9526,-7.812500
9527,-3.906250
9528,-9.765625
9529,-5.859375
9530,-7.812500
9531,-5.859375
9532,-9.765625
9533,-5.859375
9534,-5.859375
9535,-5.859375
9536,-5.859375
9537,-7.812500
9538,-7.812500
9539,-3.906250
9540,-3.906250
9541,-5.859375
9542,-5.859375
9543,-7.812500
9544,-3.906250
9545,-3.906250
9546,-3.906250
9547,-3.906250
9548,-5.859375
9549,-3.906250
9550,-5.859375
9551,-3.906250
9552,-3.906250
9553,-5.859375
9554,-3.906250
9555,-5.859375
9556,-3.906250
9557,-1.953125
9558,-7.812500
9559,-3.906250
9560,5.859375
9561,-3.906250
9562,-3.906250
9563,-5.859375
9564,-3.906250
9565,-7.812500
9566,-3.906250
9567,-5.859375
9568,-3.906250
9569,-3.906250
9570,-3.906250
9571,-3.906250
9572,-5.859375
9573,-3.906250
9574,-5.859375
9575,-5.859375
9576,-1.953125
9577,-7.812500
9578,-3.906250
9579,-7.812500
9580,-1.953125
9581,-3.906250
9582,-3.906250
9583,-3.906250
9584,-9.765625
9585,-3.906250
9586,-5.859375
9587,-5.859375
9588,-3.906250
9589,-7.812500
9590,-3.906250
9591,-5.859375
9592,-5.859375
9593,-5.859375
9594,-5.859375
9595,-5.859375
9596,-5.859375
9597,-3.906250
9598,-5.859375
9599,0.000000
9600,-3.906250
9601,-5.859375
9602,-5.859375
9603,-3.906250
9604,-3.906250
9605,-3.906250
9606,-9.765625
9607,-3.906250
9608,-5.859375
9609,-5.859375
9610,-3.906250
9611,-7.812500
9612,-1.953125
9613,-3.906250
9614,-3.906250
9615,-1.953125
9616,-5.859375
9617,-3.906250
9618,-5.859375
9619,-1.953125
9620,-3.906250
9621,-5.859375
9622,-1.953125
9623,-3.906250
9624,-3.906250
9625,-5.859375
9626,-3.906250
9627,-1.953125
9628,-3.906250
9629,-3.906250
9630,-5.859375
9631,-1.953125
9632,-3.906250
9633,-3.906250
9634,-1.953125
9635,-7.812500
9636,-1.953125
9637,-3.906250
9638,-3.906250
9639,-3.906250
9640,-5.859375
9641,-3.906250
9642,-7.812500
9643,-3.906250
9644,-3.906250
9645,-7.812500
9646,-3.906250
9647,-3.906250
9648,-3.906250
9649,-7.812500
9650,-7.812500
9651,-3.906250
9652,-5.859375
9653,-3.906250
9654,-3.906250
9655,-1.953125
9656,-7.812500
9657,-1.953125
9658,-1.953125
9659,-5.859375
9660,-1.953125
9661,-9.765625
9662,-3.906250
9663,-5.859375
9664,-3.906250
9665,-3.906250
9666,-19.531250
9667,-1.953125
9668,-3.906250
9669,-3.906250
9670,-3.906250
9671,-1.953125
9672,0.000000
9673,-5.859375
9674,-1.953125
9675,-3.906250
9676,-3.906250
9677,-3.906250
9678,-7.812500
9679,-7.812500
9680,-5.859375
9681,-7.812500
9682,-5.859375
9683,-11.718750
9684,-3.906250
9685,-5.859375
9686,-5.859375
9687,0.000000
9688,-7.812500
9689,-5.859375
9690,-7.812500
9691,-5.859375
9692,-9.765625
9693,-7.812500
9694,-7.812500
9695,-9.765625
9696,-9.765625
9697,-7.812500
9698,-9.765625
9699,-9.765625
9700,-9.765625
9701,-9.765625
9702,-7.812500
9703,-9.765625
9704,-9.765625
9705,-9.765625
9706,-9.765625
9707,-9.765625
9708,-9.765625
9709,-9.765625
9710,-9.765625
9711,-9.765625
9712,-9.765625
9713,-9.765625
9714,-7.812500
9715,-13.671875
9716,-9.765625
9717,-9.765625
9718,-9.765625
9719,-9.765625
9720,-9.765625
9721,-5.859375
9722,-9.765625
9723,-9.765625
9724,-9.765625
9725,-9.765625
9726,-9.765625
9727,-9.765625
9728,-7.812500
9729,-9.765625
9730,-9.765625
9731,-9.765625
9732,-9.765625
9733,-3.906250
9734,-13.671875
9735,-9.765625
9736,-9.765625
9737,-13.671875
9738,-9.765625
9739,-11.718750
9740,-9.765625
9741,-13.671875
9742,-11.718750
9743,-9.765625
9744,-11.718750
9745,-9.765625
9746,-13.671875
9747,-9.765625
9748,-9.765625
9749,-9.765625
9750,-5.859375
9751,-11.718750
9752,-9.765625
9753,-9.765625
9754,-9.765625
9755,-7.812500
9756,-9.765625
9757,-7.812500
9758,-9.765625
9759,-9.765625
9760,-9.765625
9761,-7.812500
9762,-5.859375
9763,-9.765625
9764,-9.765625
9765,-9.765625
9766,-9.765625
9767,-7.812500
9768,-9.765625
9769,-9.765625
9770,-7.812500
9771,-9.765625
9772,-7.812500
9773,-9.765625
9774,-7.812500
9775,-13.671875
9776,-5.859375
9777,-9.765625
9778,-9.765625
9779,-9.765625
9780,-9.765625
9781,-7.812500
9782,-9.765625
9783,-9.765625
9784,-9.765625
9785,-9.765625
9786,-9.765625
9787,0.000000
9788,-9.765625
9789,-9.765625
9790,-9.765625
9791,5.859375
9792,-5.859375
9793,-9.765625
9794,-9.765625
9795,-7.812500
9796,-9.765625
9797,-9.765625
9798,-7.812500
9799,-7.812500
9800,-15.625000
9801,-9.765625
9802,-9.765625
9803,-5.859375
9804,-7.812500
9805,-7.812500
9806,-5.859375
9807,-7.812500
9808,-7.812500
9809,-9.765625
9810,-5.859375
9811,-5.859375
9812,-7.812500
9813,-3.906250
9814,-7.812500
9815,0.000000
9816,-7.812500
9817,-1.953125
9818,-3.906250
9819,-9.765625
9820,-5.859375
9821,-9.765625
9822,-9.765625
9823,-5.859375
9824,-5.859375
9825,-5.859375
9826,-7.812500
9827,-3.906250
9828,-5.859375
9829,-5.859375
9830,-7.812500
9831,-9.765625
9832,-5.859375
9833,-3.906250
9834,-9.765625
9835,-5.859375
9836,-5.859375
9837,-5.859375
9838,-15.625000
9839,-3.906250
9840,-9.765625
9841,-7.812500
9842,-9.765625
9843,-9.765625
9844,-5.859375
9845,-7.812500
9846,-5.859375
9847,-1.953125
9848,-7.812500
9849,-7.812500
9850,-9.765625
9851,-1.953125
9852,-9.765625
9853,-5.859375
9854,-5.859375
9855,-7.812500
9856,-3.906250
9857,-5.859375
9858,-5.859375
9859,-9.765625
9860,-7.812500
9861,-3.906250
9862,-7.812500
9863,-5.859375
9864,-5.859375
9865,-7.812500
9866,-5.859375
9867,-7.812500
9868,-7.812500
9869,-7.812500
9870,-7.812500
9871,-5.859375
9872,-9.765625
9873,-3.906250
9874,-5.859375
9875,-7.812500
9876,-9.765625
9877,-7.812500
9878,-5.859375
9879,-9.765625
9880,-7.812500
9881,-5.859375
9882,-7.812500
9883,-7.812500
9884,-13.671875
9885,-7.812500
9886,-7.812500
9887,-9.765625
9888,-5.859375
9889,-9.765625
9890,-5.859375
9891,-7.812500
9892,-9.765625
9893,-5.859375
9894,-9.765625
9895,-5.859375
9896,-9.765625
9897,-7.812500
9898,-7.812500
9899,-9.765625
9900,-5.859375
9901,-9.765625
9902,-7.812500
9903,-9.765625
9904,-7.812500
9905,-7.812500
9906,11.718750
9907,-5.859375
9908,-7.812500
9909,-5.859375
9910,-5.859375
9911,-5.859375
9912,-3.906250
9913,-7.812500
9914,-3.906250
9915,-9.765625
9916,-5.859375
9917,-7.812500
9918,-9.765625
9919,-3.906250
9920,-9.765625
9921,-5.859375
9922,-9.765625
9923,-7.812500
9924,-7.812500
9925,-9.765625
9926,-3.906250
9927,-7.812500
9928,-9.765625
9929,-5.859375
9930,1.953125
9931,-5.859375
9932,-7.812500
9933,-5.859375
9934,-7.812500
9935,-5.859375
9936,-9.765625
9937,-7.812500
9938,-9.765625
9939,-7.812500
9940,-9.765625
9941,-7.812500
9942,-7.812500
9943,-7.812500
9944,-9.765625
9945,-9.765625
9946,-9.765625
9947,-11.718750
9948,-9.765625
9949,-9.765625
9950,-13.671875
9951,-9.765625
9952,-13.671875
9953,-13.671875
9954,-13.671875
9955,-17.578125
9956,-13.671875
9957,-19.531250
9958,-17.578125
9959,-17.578125
9960,-19.531250
9961,-17.578125
9962,-23.437500
9963,-19.531250
9964,-23.437500
9965,-23.437500
9966,-23.437500
9967,-25.390625
9968,-25.390625
9969,-25.390625
9970,-27.343750
9971,-29.296875
9972,-29.296875
9973,-29.296875
9974,-31.250000
9975,-29.296875
9976,-31.250000
9977,-31.250000
9978,-31.250000
9979,-31.250000
9980,-31.250000
9981,-35.156250
9982,-35.156250
9983,-37.109375
9984,-37.109375
9985,-37.109375
9986,-39.062500
9987,-37.109375
9988,-39.062500
9989,-37.109375
9990,-39.062500
9991,-39.062500
9992,-39.062500
9993,-25.390625
9994,-39.062500
9995,-41.015625
9996,-41.015625
9997,-41.015625
9998,-41.015625
9999,-41.015625
10000,-41.015625
